#Regenerated by B.F. Madore from published spectrum with using UN-SCAN-IT Software.
#Heliocentric Velocity     Flux Density 
#[km/s]                     [Jy]
 1952.771                  -0.006360
 1954.881                  -0.002120
 1956.992                   0.001060
 1959.103                   0.004240
 1961.214                   0.006360
 1963.325                   0.008481
 1965.435                   0.008481
 1967.546                   0.008481
 1969.657                   0.007421
 1971.768                   0.007421
 1973.879                   0.006360
 1975.990                   0.005300
 1978.100                   0.005300
 1980.211                   0.004240
 1982.322                   0.004240
 1984.433                   0.004240
 1986.544                   0.003180
 1988.654                   0.002120
 1990.765                   0.002120
 1992.876                   0.002120
 1994.987                   0.001060
 1997.098                   0.000000
 1999.208                  -0.002120
 2001.319                  -0.003180
 2003.430                  -0.005300
 2005.541                  -0.006360
 2007.652                  -0.007421
 2009.763                  -0.008481
 2011.873                  -0.008481
 2013.984                  -0.008481
 2016.095                  -0.008481
 2018.206                  -0.007421
 2020.317                  -0.007421
 2022.427                  -0.005300
 2024.538                  -0.003180
 2026.649                  -0.001060
 2028.760                   0.001060
 2030.871                   0.003180
 2032.982                   0.004240
 2035.092                   0.006360
 2037.203                   0.007421
 2039.314                   0.008481
 2041.425                   0.008481
 2043.536                   0.008481
 2045.646                   0.008481
 2047.757                   0.008481
 2049.868                   0.007421
 2051.979                   0.005300
 2054.090                   0.003180
 2056.200                   0.001060
 2058.311                  -0.001060
 2060.422                  -0.004240
 2062.533                  -0.006360
 2064.644                  -0.008481
 2066.755                  -0.010601
 2068.865                  -0.011661
 2070.976                  -0.012721
 2073.087                  -0.014841
 2075.198                  -0.014841
 2077.309                  -0.015901
 2079.419                  -0.015901
 2081.530                  -0.015901
 2083.641                  -0.015901
 2085.752                  -0.015901
 2087.863                  -0.014841
 2089.974                  -0.014841
 2092.084                  -0.013781
 2094.195                  -0.013781
 2096.306                  -0.012721
 2098.417                  -0.011661
 2100.528                  -0.010601
 2102.638                  -0.009541
 2104.749                  -0.008481
 2106.860                  -0.007421
 2108.971                  -0.006360
 2111.082                  -0.006360
 2113.193                  -0.006360
 2115.303                  -0.006360
 2117.414                  -0.006360
 2119.525                  -0.006360
 2121.636                  -0.005300
 2123.747                  -0.005300
 2125.857                  -0.005300
 2127.968                  -0.005300
 2130.079                  -0.005300
 2132.190                  -0.004240
 2134.301                  -0.004240
 2136.412                  -0.004240
 2138.522                  -0.003180
 2140.633                  -0.003180
 2142.744                  -0.002120
 2144.855                  -0.001060
 2146.966                  -0.001060
 2149.076                   0.000000
 2151.187                   0.000000
 2153.298                   0.001060
 2155.409                   0.002120
 2157.520                   0.002120
 2159.631                   0.002120
 2161.741                   0.002120
 2163.852                   0.002120
 2165.963                   0.002120
 2168.074                   0.002120
 2170.185                   0.002120
 2172.295                   0.001060
 2174.406                   0.001060
 2176.517                   0.001060
 2178.628                   0.001060
 2180.739                   0.002120
 2182.850                   0.002120
 2184.960                   0.002120
 2187.071                   0.002120
 2189.182                   0.002120
 2191.293                   0.002120
 2193.404                   0.002120
 2195.514                   0.002120
 2197.625                   0.001060
 2199.736                  -0.001060
 2201.847                  -0.002120
 2203.958                  -0.004240
 2206.069                  -0.005300
 2208.179                  -0.006360
 2210.290                  -0.007421
 2212.401                  -0.007421
 2214.512                  -0.007421
 2216.623                  -0.007421
 2218.733                  -0.006360
 2220.844                  -0.006360
 2222.955                  -0.005300
 2225.066                  -0.002120
 2227.177                  -0.001060
 2229.288                   0.000000
 2231.398                   0.002120
 2233.509                   0.003180
 2235.620                   0.004240
 2237.731                   0.004240
 2239.842                   0.005300
 2241.952                   0.005300
 2244.063                   0.006360
 2246.174                   0.006360
 2248.285                   0.006360
 2250.396                   0.006360
 2252.507                   0.006360
 2254.617                   0.006360
 2256.728                   0.006360
 2258.839                   0.007421
 2260.950                   0.008481
 2263.061                   0.008481
 2265.171                   0.008481
 2267.282                   0.008481
 2269.393                   0.008481
 2271.504                   0.008481
 2273.615                   0.008481
 2275.726                   0.008481
 2277.836                   0.006360
 2279.947                   0.005300
 2282.058                   0.004240
 2284.169                   0.002120
 2286.280                   0.001060
 2288.390                   0.000000
 2290.501                  -0.002120
 2292.612                  -0.003180
 2294.723                  -0.004240
 2296.834                  -0.004240
 2298.945                  -0.005300
 2301.055                  -0.006360
 2303.166                  -0.006360
 2305.277                  -0.006360
 2307.388                  -0.006360
 2309.499                  -0.005300
 2311.609                  -0.004240
 2313.720                  -0.004240
 2315.831                  -0.004240
 2317.942                  -0.003180
 2320.053                  -0.002120
 2322.164                  -0.001060
 2324.274                   0.000000
 2326.385                   0.000000
 2328.496                   0.001060
 2330.607                   0.002120
 2332.718                   0.003180
 2334.828                   0.005300
 2336.939                   0.006360
 2339.050                   0.008481
 2341.161                   0.009541
 2343.272                   0.010601
 2345.383                   0.010601
 2347.493                   0.011661
 2349.604                   0.011661
 2351.715                   0.012721
 2353.826                   0.011661
 2355.937                   0.011661
 2358.048                   0.010601
 2360.158                   0.010601
 2362.269                   0.009541
 2364.380                   0.008481
 2366.491                   0.007421
 2368.602                   0.007421
 2370.712                   0.006360
 2372.823                   0.006360
 2374.934                   0.006360
 2377.045                   0.006360
 2379.156                   0.005300
 2381.267                   0.005300
 2383.377                   0.005300
 2385.488                   0.004240
 2387.599                   0.004240
 2389.710                   0.002120
 2391.821                   0.002120
 2393.931                   0.000000
 2396.042                  -0.002120
 2398.153                  -0.003180
 2400.264                  -0.004240
 2402.375                  -0.006360
 2404.486                  -0.008481
 2406.596                  -0.009541
 2408.707                  -0.009541
 2410.818                  -0.009541
 2412.929                  -0.009541
 2415.040                  -0.008481
 2417.150                  -0.007421
 2419.261                  -0.005300
 2421.372                  -0.003180
 2423.483                  -0.001060
 2425.594                   0.000000
 2427.705                   0.002120
 2429.815                   0.003180
 2431.926                   0.004240
 2434.037                   0.004240
 2436.148                   0.002120
 2438.259                   0.002120
 2440.369                   0.000000
 2442.480                  -0.001060
 2444.591                  -0.002120
 2446.702                  -0.003180
 2448.813                  -0.005300
 2450.924                  -0.005300
 2453.034                  -0.006360
 2455.145                  -0.006360
 2457.256                  -0.006360
 2459.367                  -0.006360
 2461.478                  -0.005300
 2463.588                  -0.005300
 2465.699                  -0.004240
 2467.810                  -0.004240
 2469.921                  -0.004240
 2472.032                  -0.004240
 2474.143                  -0.004240
 2476.253                  -0.004240
 2478.364                  -0.004240
 2480.475                  -0.005300
 2482.586                  -0.005300
 2484.697                  -0.005300
 2486.807                  -0.005300
 2488.918                  -0.005300
 2491.029                  -0.004240
 2493.140                  -0.004240
 2495.251                  -0.002120
 2497.362                  -0.002120
 2499.472                   0.000000
 2501.583                   0.000000
 2503.694                   0.001060
 2505.805                   0.002120
 2507.916                   0.003180
 2510.026                   0.003180
 2512.137                   0.004240
 2514.248                   0.004240
 2516.359                   0.004240
 2518.470                   0.004240
 2520.581                   0.004240
 2522.691                   0.004240
 2524.802                   0.004240
 2526.913                   0.003180
 2529.024                   0.003180
 2531.135                   0.002120
 2533.245                   0.001060
 2535.356                  -0.001060
 2537.467                  -0.003180
 2539.578                  -0.004240
 2541.689                  -0.005300
 2543.800                  -0.005300
 2545.910                  -0.006360
 2548.021                  -0.005300
 2550.132                  -0.005300
 2552.243                  -0.004240
 2554.354                  -0.003180
 2556.464                  -0.002120
 2558.575                   0.000000
 2560.686                   0.001060
 2562.797                   0.002120
 2564.908                   0.002120
 2567.019                   0.002120
 2569.129                   0.002120
 2571.240                   0.002120
 2573.351                   0.001060
 2575.462                   0.001060
 2577.573                   0.001060
 2579.683                   0.001060
 2581.794                   0.001060
 2583.905                   0.001060
 2586.016                   0.002120
 2588.127                   0.002120
 2590.238                   0.003180
 2592.348                   0.005300
 2594.459                   0.006360
 2596.570                   0.007421
 2598.681                   0.008481
 2600.792                   0.009541
 2602.902                   0.009541
 2605.013                   0.010601
 2607.124                   0.010601
 2609.235                   0.010601
 2611.346                   0.010601
 2613.457                   0.010601
 2615.567                   0.011661
 2617.678                   0.011661
 2619.789                   0.011661
 2621.900                   0.012721
 2624.010                   0.012721
 2626.121                   0.012721
 2628.232                   0.012721
 2630.343                   0.013781
 2632.454                   0.013781
 2634.565                   0.013781
 2636.676                   0.012721
 2638.786                   0.012721
 2640.897                   0.012721
 2643.008                   0.012721
 2645.119                   0.011661
 2647.229                   0.010601
 2649.340                   0.010601
 2651.451                   0.010601
 2653.562                   0.010601
 2655.673                   0.010601
 2657.784                   0.010601
 2659.895                   0.010601
 2662.005                   0.011661
 2664.116                   0.011661
 2666.227                   0.012721
 2668.338                   0.012721
 2670.448                   0.012721
 2672.559                   0.012721
 2674.670                   0.012721
 2676.781                   0.012721
 2678.892                   0.011661
 2681.003                   0.010601
 2683.114                   0.010601
 2685.224                   0.009541
 2687.335                   0.008481
 2689.446                   0.008481
 2691.557                   0.007421
 2693.667                   0.006360
 2695.778                   0.006360
 2697.889                   0.006360
 2700.000                   0.005300
 2702.111                   0.004240
 2704.222                   0.004240
 2706.333                   0.004240
 2708.443                   0.003180
 2710.554                   0.003180
 2712.665                   0.004240
 2714.776                   0.004240
 2716.886                   0.005300
 2718.997                   0.006360
 2721.108                   0.007421
 2723.219                   0.009541
 2725.330                   0.010601
 2727.441                   0.013781
 2729.552                   0.015901
 2731.662                   0.019081
 2733.773                   0.021201
 2735.884                   0.024382
 2737.995                   0.026502
 2740.105                   0.028622
 2742.216                   0.030742
 2744.327                   0.032862
 2746.438                   0.033922
 2748.549                   0.034982
 2750.660                   0.036042
 2752.771                   0.037102
 2754.881                   0.037102
 2756.992                   0.040283
 2759.103                   0.041343
 2761.214                   0.044523
 2763.324                   0.046643
 2765.435                   0.050883
 2767.546                   0.055124
 2769.657                   0.062544
 2771.768                   0.067845
 2773.879                   0.076325
 2775.990                   0.081625
 2778.100                   0.093286
 2780.211                   0.100707
 2782.322                   0.112367
 2784.433                   0.118728
 2786.543                   0.134629
 2788.654                   0.140989
 2790.765                   0.159011
 2792.876                   0.167491
 2794.987                   0.182332
 2797.098                   0.188693
 2799.208                   0.202474
 2801.319                   0.208834
 2803.430                   0.217314
 2805.541                   0.223675
 2807.652                   0.230035
 2809.762                   0.234276
 2811.873                   0.240636
 2813.984                   0.241696
 2816.095                   0.242756
 2818.206                   0.242756
 2820.317                   0.241696
 2822.427                   0.240636
 2824.538                   0.237456
 2826.649                   0.233216
 2828.760                   0.228975
 2830.871                   0.225795
 2832.981                   0.220495
 2835.092                   0.218375
 2837.203                   0.212014
 2839.314                   0.208834
 2841.425                   0.205654
 2843.536                   0.203534
 2845.646                   0.202474
 2847.757                   0.201413
 2849.868                   0.200353
 2851.979                   0.200353
 2854.090                   0.200353
 2856.200                   0.201413
 2858.311                   0.203534
 2860.422                   0.205654
 2862.533                   0.207774
 2864.644                   0.209894
 2866.755                   0.212014
 2868.865                   0.214134
 2870.976                   0.216254
 2873.087                   0.217314
 2875.198                   0.217314
 2877.309                   0.215194
 2879.419                   0.213074
 2881.530                   0.208834
 2883.641                   0.202474
 2885.752                   0.197173
 2887.863                   0.188693
 2889.974                   0.184452
 2892.084                   0.171732
 2894.195                   0.164311
 2896.306                   0.149470
 2898.417                   0.139929
 2900.528                   0.128269
 2902.638                   0.118728
 2904.749                   0.108127
 2906.860                   0.099647
 2908.971                   0.087986
 2911.082                   0.082685
 2913.193                   0.072085
 2915.303                   0.068905
 2917.414                   0.061484
 2919.525                   0.056184
 2921.636                   0.051943
 2923.747                   0.047703
 2925.857                   0.044523
 2927.968                   0.041343
 2930.079                   0.038163
 2932.190                   0.034982
 2934.301                   0.031802
 2936.412                   0.029682
 2938.522                   0.026502
 2940.633                   0.025442
 2942.744                   0.023322
 2944.855                   0.022262
 2946.966                   0.020141
 2949.076                   0.018021
 2951.187                   0.016961
 2953.298                   0.015901
 2955.409                   0.013781
 2957.520                   0.012721
 2959.631                   0.011661
 2961.741                   0.010601
 2963.852                   0.009541
 2965.963                   0.008481
 2968.074                   0.007421
 2970.185                   0.007421
 2972.295                   0.007421
 2974.406                   0.007421
 2976.517                   0.007421
 2978.628                   0.008481
 2980.739                   0.009541
 2982.850                   0.009541
 2984.960                   0.010601
 2987.071                   0.010601
 2989.182                   0.009541
 2991.293                   0.008481
 2993.404                   0.007421
 2995.514                   0.006360
 2997.625                   0.005300
 2999.736                   0.004240
 3001.847                   0.003180
 3003.958                   0.003180
 3006.069                   0.002120
 3008.179                   0.002120
 3010.290                   0.003180
 3012.401                   0.004240
 3014.512                   0.006360
 3016.623                   0.007421
 3018.733                   0.009541
 3020.844                   0.009541
 3022.955                   0.009541
 3025.066                   0.009541
 3027.177                   0.009541
 3029.288                   0.008481
 3031.398                   0.008481
 3033.509                   0.007421
 3035.620                   0.006360
 3037.731                   0.006360
 3039.842                   0.006360
 3041.952                   0.006360
 3044.063                   0.006360
 3046.174                   0.006360
 3048.285                   0.007421
 3050.396                   0.008481
 3052.507                   0.009541
 3054.617                   0.009541
 3056.728                   0.009541
 3058.839                   0.009541
 3060.950                   0.009541
 3063.061                   0.009541
 3065.171                   0.008481
 3067.282                   0.007421
 3069.393                   0.006360
 3071.504                   0.006360
 3073.615                   0.005300
 3075.726                   0.005300
 3077.836                   0.004240
 3079.947                   0.004240
 3082.058                   0.004240
 3084.169                   0.004240
 3086.280                   0.003180
 3088.390                   0.003180
 3090.501                   0.002120
 3092.612                   0.001060
 3094.723                   0.000000
 3096.834                   0.000000
 3098.945                  -0.001060
 3101.055                  -0.002120
 3103.166                  -0.002120
 3105.277                  -0.003180
 3107.388                  -0.003180
 3109.499                  -0.003180
 3111.609                  -0.002120
 3113.720                  -0.001060
 3115.831                   0.001060
 3117.942                   0.002120
 3120.053                   0.004240
 3122.164                   0.005300
 3124.274                   0.007421
 3126.385                   0.008481
 3128.496                   0.010601
 3130.607                   0.010601
 3132.718                   0.010601
 3134.828                   0.010601
 3136.939                   0.009541
 3139.050                   0.009541
 3141.161                   0.008481
 3143.272                   0.007421
 3145.383                   0.007421
 3147.493                   0.006360
 3149.604                   0.006360
 3151.715                   0.005300
 3153.826                   0.004240
 3155.937                   0.004240
 3158.047                   0.003180
 3160.158                   0.003180
 3162.269                   0.002120
 3164.380                   0.001060
 3166.491                   0.000000
 3168.602                   0.000000
 3170.712                   0.000000
 3172.823                   0.000000
 3174.934                   0.000000
 3177.045                   0.000000
 3179.156                   0.000000
 3181.266                   0.000000
 3183.377                   0.000000
 3185.488                   0.000000
 3187.599                   0.001060
 3189.710                   0.002120
 3191.821                   0.002120
 3193.931                   0.002120
 3196.042                   0.003180
 3198.153                   0.003180
 3200.264                   0.003180
 3202.375                   0.004240
 3204.485                   0.004240
 3206.596                   0.004240
 3208.707                   0.004240
 3210.818                   0.004240
 3212.929                   0.004240
 3215.040                   0.004240
 3217.150                   0.004240
 3219.261                   0.004240
 3221.372                   0.004240
 3223.483                   0.004240
 3225.594                   0.004240
 3227.704                   0.004240
 3229.815                   0.004240
 3231.926                   0.004240
 3234.037                   0.003180
 3236.148                   0.003180
 3238.259                   0.003180
 3240.369                   0.004240
 3242.480                   0.004240
 3244.591                   0.004240
 3246.702                   0.005300
 3248.813                   0.005300
 3250.923                   0.005300
 3253.034                   0.004240
 3255.145                   0.004240
 3257.256                   0.003180
 3259.367                   0.003180
 3261.478                   0.002120
 3263.588                   0.001060
 3265.699                   0.000000
 3267.810                  -0.001060
 3269.921                  -0.002120
 3272.032                  -0.003180
 3274.143                  -0.004240
 3276.253                  -0.004240
 3278.364                  -0.004240
 3280.475                  -0.005300
 3282.586                  -0.005300
 3284.697                  -0.005300
 3286.807                  -0.006360
 3288.918                  -0.006360
 3291.029                  -0.006360
 3293.140                  -0.007421
 3295.251                  -0.007421
 3297.362                  -0.007421
 3299.472                  -0.007421
 3301.583                  -0.008481
 3303.694                  -0.008481
 3305.805                  -0.008481
 3307.916                  -0.009541
 3310.026                  -0.009541
 3312.137                  -0.009541
 3314.248                  -0.009541
 3316.359                  -0.009541
 3318.470                  -0.009541
 3320.581                  -0.009541
 3322.691                  -0.009541
 3324.802                  -0.009541
 3326.913                  -0.009541
 3329.024                  -0.008481
 3331.135                  -0.008481
 3333.245                  -0.007421
 3335.356                  -0.006360
 3337.467                  -0.006360
 3339.578                  -0.005300
 3341.689                  -0.004240
 3343.800                  -0.004240
 3345.910                  -0.003180
 3348.021                  -0.002120
 3350.132                  -0.003180
 3352.243                  -0.003180
 3354.354                  -0.004240
 3356.464                  -0.005300
 3358.575                  -0.006360
 3360.686                  -0.006360
 3362.797                  -0.007421
 3364.908                  -0.007421
 3367.019                  -0.007421
 3369.129                  -0.007421
 3371.240                  -0.007421
 3373.351                  -0.007421
 3375.462                  -0.007421
 3377.573                  -0.007421
 3379.683                  -0.007421
 3381.794                  -0.007421
 3383.905                  -0.007421
 3386.016                  -0.007421
 3388.127                  -0.007421
 3390.238                  -0.007421
 3392.348                  -0.006360
 3394.459                  -0.006360
 3396.570                  -0.006360
 3398.681                  -0.005300
 3400.792                  -0.005300
 3402.902                  -0.004240
 3405.013                  -0.004240
 3407.124                  -0.004240
 3409.235                  -0.004240
 3411.346                  -0.004240
 3413.457                  -0.004240
 3415.567                  -0.004240
 3417.678                  -0.005300
 3419.789                  -0.004240
 3421.900                  -0.004240
 3424.010                  -0.004240
 3426.121                  -0.004240
 3428.232                  -0.004240
 3430.343                  -0.004240
 3432.454                  -0.004240
 3434.565                  -0.004240
 3436.676                  -0.004240
 3438.786                  -0.004240
 3440.897                  -0.004240
 3443.008                  -0.004240
 3445.119                  -0.004240
 3447.229                  -0.004240
 3449.340                  -0.004240
 3451.451                  -0.005300
 3453.562                  -0.005300
 3455.673                  -0.005300
 3457.784                  -0.005300
 3459.895                  -0.005300
 3462.005                  -0.005300
 3464.116                  -0.006360
 3466.227                  -0.006360
 3468.338                  -0.007421
 3470.448                  -0.007421
 3472.559                  -0.007421
 3474.670                  -0.006360
 3476.781                  -0.005300
 3478.892                  -0.004240
 3481.003                  -0.002120
 3483.114                  -0.001060
 3485.224                   0.000000
 3487.335                   0.001060
 3489.446                   0.002120
 3491.557                   0.003180
 3493.667                   0.003180
 3495.778                   0.003180
 3497.889                   0.002120
 3500.000                   0.000000
 3502.111                   0.000000
 3504.222                  -0.001060
 3506.333                  -0.001060
 3508.443                  -0.001060
 3510.554                   0.000000
 3512.665                   0.000000
 3514.776                   0.001060
 3516.886                   0.002120
 3518.997                   0.004240
 3521.108                   0.007421
 3523.219                   0.008481
 3525.330                   0.010601
 3527.441                   0.010601
 3529.552                   0.010601
 3531.662                   0.010601
 3533.773                   0.010601
 3535.884                   0.009541
 3537.995                   0.009541
 3540.105                   0.008481
 3542.216                   0.006360
 3544.327                   0.004240
 3546.438                   0.003180
 3548.549                   0.002120
 3550.660                   0.000000
 3552.771                   0.000000
 3554.881                  -0.001060
 3556.992                  -0.001060
 3559.103                  -0.001060
 3561.214                  -0.001060
 3563.324                   0.000000
 3565.435                   0.001060
 3567.546                   0.002120
 3569.657                   0.003180
 3571.768                   0.004240
 3573.879                   0.004240
 3575.990                   0.005300
 3578.100                   0.005300
 3580.211                   0.006360
 3582.322                   0.006360
 3584.433                   0.006360
 3586.543                   0.006360
 3588.654                   0.007421
 3590.765                   0.007421
 3592.876                   0.007421
 3594.987                   0.007421
 3597.098                   0.007421
 3599.208                   0.008481
 3601.319                   0.008481
 3603.430                   0.008481
 3605.541                   0.008481
 3607.652                   0.008481
 3609.762                   0.008481
 3611.873                   0.008481
 3613.984                   0.008481
 3616.095                   0.008481
 3618.206                   0.009541
 3620.317                   0.009541
 3622.427                   0.009541
 3624.538                   0.009541
 3626.649                   0.009541
 3628.760                   0.010601
 3630.871                   0.010601
 3632.981                   0.010601
 3635.092                   0.011661
 3637.203                   0.011661
 3639.314                   0.011661
 3641.425                   0.011661
 3643.536                   0.011661
 3645.646                   0.011661
 3647.757                   0.010601
 3649.868                   0.010601
 3651.979                   0.010601
 3654.090                   0.011661
 3656.200                   0.011661
 3658.311                   0.011661
 3660.422                   0.012721
 3662.533                   0.012721
 3664.644                   0.013781
 3666.755                   0.014841
 3668.865                   0.015901
 3670.976                   0.016961
 3673.087                   0.016961
 3675.198                   0.016961
 3677.309                   0.018021
 3679.419                   0.018021
 3681.530                   0.016961
 3683.641                   0.015901
 3685.752                   0.013781
 3687.863                   0.012721
 3689.974                   0.010601
 3692.084                   0.008481
 3694.195                   0.007421
 3696.306                   0.005300
 3698.417                   0.004240
 3700.528                   0.002120
 3702.638                   0.001060
 3704.749                   0.001060
 3706.860                   0.001060
 3708.971                   0.001060
 3711.082                   0.001060
 3713.193                   0.001060
 3715.303                   0.001060
 3717.414                   0.002120
 3719.525                   0.003180
 3721.636                   0.004240
 3723.747                   0.005300
 3725.857                   0.006360
 3727.968                   0.008481
 3730.079                   0.009541
 3732.190                   0.012721
 3734.301                   0.012721
 3736.412                   0.013781
 3738.522                   0.013781
 3740.633                   0.013781
 3742.744                   0.013781
 3744.855                   0.012721
 3746.966                   0.011661
 3749.076                   0.009541
 3751.187                   0.007421
 3753.298                   0.004240
 3755.409                   0.002120
 3757.520                   0.001060
 3759.631                   0.000000
 3761.741                  -0.001060
 3763.852                  -0.001060
 3765.963                  -0.002120
 3768.074                  -0.002120
 3770.185                  -0.001060
 3772.295                  -0.001060
 3774.406                   0.000000
 3776.517                   0.002120
 3778.628                   0.002120
 3780.739                   0.004240
 3782.850                   0.005300
 3784.960                   0.006360
 3787.071                   0.007421
 3789.182                   0.007421
 3791.293                   0.008481
 3793.404                   0.007421
 3795.514                   0.007421
 3797.625                   0.007421
