#  lambda      flux
#   [A]        [erg cm^-2 s^-1 A^-1]
 3535.3023     4.618545e-01
 3539.2488     1.856171e-01
 3543.1952     -7.521157e-02
 3547.1416     2.904648e-01
 3551.0880     5.877975e-02
 3555.0344     -3.749658e-02
 3558.9809     1.325097e-01
 3562.9273     2.986679e-01
 3566.8737     6.105740e-02
 3570.8201     3.787385e-02
 3574.7666     -2.808516e-02
 3578.7130     -1.098516e-02
 3582.6594     -2.479492e-02
 3586.6058     5.638146e-02
 3590.5523     1.057028e-01
 3594.4987     9.587899e-02
 3598.4451     3.624724e-02
 3602.3915     3.883796e-03
 3606.3380     2.122349e-01
 3610.2844     -1.623521e-01
 3614.2308     3.582038e-01
 3618.1772     2.341250e-01
 3622.1237     1.379730e-01
 3626.0701     3.937823e-01
 3630.0165     -2.147485e-01
 3633.9629     2.859238e-01
 3637.9094     3.183037e-02
 3641.8558     6.274227e-02
 3645.8022     -4.434982e-02
 3649.7486     1.551561e-01
 3653.6951     2.219429e-01
 3657.6415     2.497270e-01
 3661.5879     1.480033e-01
 3665.5343     -7.154032e-02
 3669.4808     4.019335e-02
 3673.4272     2.398040e-01
 3677.3736     8.251926e-02
 3681.3200     2.473059e-01
 3685.2665     3.744848e-01
 3689.2129     2.867646e-01
 3693.1593     8.664293e-02
 3697.1057     2.494078e-01
 3701.0522     1.689154e-01
 3704.9986     1.979214e-01
 3708.9450     2.763942e-01
 3712.8914     1.349553e-01
 3716.8379     1.771221e-01
 3720.7843     2.231833e-01
 3724.7307     2.093021e-01
 3728.6771     2.828364e-01
 3732.6236     1.375867e-01
 3736.5700     2.143729e-01
 3740.5164     2.004989e-01
 3744.4628     1.919534e-01
 3748.4093     2.704577e-01
 3752.3557     1.722920e-01
 3756.3021     1.828328e-01
 3760.2485     1.278487e-01
 3764.1950     1.183566e-01
 3768.1414     1.799696e-01
 3772.0878     2.342082e-01
 3776.0342     3.554367e-01
 3779.9807     2.588623e-01
 3783.9271     2.420143e-01
 3787.8735     2.510075e-01
 3791.8199     1.631296e-01
 3795.7664     3.426318e-01
 3799.7128     1.397529e-01
 3803.6592     2.038483e-01
 3807.6056     1.547136e-01
 3811.5520     2.694777e-01
 3815.4985     3.264229e-01
 3819.4449     1.707187e-01
 3823.3913     1.369583e-01
 3827.3377     1.092532e-01
 3831.2842     1.355458e-01
 3835.2306     1.874795e-01
 3839.1770     1.840217e-01
 3843.1234     1.899146e-01
 3847.0699     1.802314e-01
 3851.0163     2.880245e-01
 3854.9627     2.417158e-01
 3858.9091     1.176456e-01
 3862.8556     1.386679e-01
 3866.8020     1.176554e-01
 3870.7484     2.525926e-01
 3874.6948     1.668599e-01
 3878.6413     3.023493e-01
 3882.5877     2.172479e-01
 3886.5341     1.963152e-01
 3890.4805     1.831304e-01
 3894.4270     2.625692e-01
 3898.3734     3.153437e-01
 3902.3198     2.319273e-01
 3906.2662     3.499353e-01
 3910.2127     2.909889e-01
 3914.1591     3.124700e-01
 3918.1055     2.247365e-01
 3922.0519     2.711499e-01
 3925.9984     2.465702e-01
 3929.9448     2.022630e-01
 3933.8912     1.567430e-01
 3937.8376     1.331024e-01
 3941.7841     1.604087e-01
 3945.7305     2.485042e-01
 3949.6769     2.501273e-01
 3953.6233     2.258621e-01
 3957.5698     3.042947e-01
 3961.5162     2.597406e-01
 3965.4626     2.302498e-01
 3969.4090     1.814190e-01
 3973.3555     1.875956e-01
 3977.3019     2.467640e-01
 3981.2483     2.584121e-01
 3985.1947     3.206784e-01
 3989.1412     3.936816e-01
 3993.0876     4.057131e-01
 3997.0340     3.846936e-01
 4000.9804     4.395408e-01
 4004.9269     4.454266e-01
 4008.8733     4.479402e-01
 4012.8197     5.134200e-01
 4016.7661     6.184145e-01
 4020.7126     5.628614e-01
 4024.6590     4.184765e-01
 4028.6054     4.212784e-01
 4032.5518     4.840684e-01
 4036.4983     4.870081e-01
 4040.4447     5.177364e-01
 4044.3911     5.136151e-01
 4048.3375     5.105159e-01
 4052.2839     4.905873e-01
 4056.2304     5.379347e-01
 4060.1768     4.540509e-01
 4064.1232     4.767419e-01
 4068.0696     4.444738e-01
 4072.0161     4.620302e-01
 4075.9625     4.888492e-01
 4079.9089     5.710207e-01
 4083.8553     4.650987e-01
 4087.8018     5.403364e-01
 4091.7482     5.332279e-01
 4095.6946     4.840546e-01
 4099.6410     5.236076e-01
 4103.5875     4.933982e-01
 4107.5339     4.807566e-01
 4111.4803     4.893050e-01
 4115.4267     5.512777e-01
 4119.3732     5.319533e-01
 4123.3196     4.803640e-01
 4127.2660     5.242198e-01
 4131.2124     4.831103e-01
 4135.1589     5.107244e-01
 4139.1053     5.741737e-01
 4143.0517     4.787892e-01
 4146.9981     4.444366e-01
 4150.9446     4.731603e-01
 4154.8910     5.506955e-01
 4158.8374     4.493244e-01
 4162.7838     5.135922e-01
 4166.7303     5.034117e-01
 4170.6767     5.343426e-01
 4174.6231     4.742519e-01
 4178.5695     5.000064e-01
 4182.5160     5.026633e-01
 4186.4624     5.292663e-01
 4190.4088     5.241588e-01
 4194.3552     5.006051e-01
 4198.3017     5.194394e-01
 4202.2481     4.951748e-01
 4206.1945     5.090004e-01
 4210.1409     5.450754e-01
 4214.0874     4.763418e-01
 4218.0338     5.362612e-01
 4221.9802     5.398971e-01
 4225.9266     5.380747e-01
 4229.8731     5.129929e-01
 4233.8195     4.867109e-01
 4237.7659     4.872227e-01
 4241.7123     5.190518e-01
 4245.6588     5.103225e-01
 4249.6052     5.156327e-01
 4253.5516     5.466058e-01
 4257.4980     5.210040e-01
 4261.4445     5.407966e-01
 4265.3909     5.242825e-01
 4269.3373     5.185403e-01
 4273.2837     5.389341e-01
 4277.2302     5.514004e-01
 4281.1766     4.908206e-01
 4285.1230     5.045072e-01
 4289.0694     5.337600e-01
 4293.0159     5.293602e-01
 4296.9623     4.758089e-01
 4300.9087     4.904284e-01
 4304.8551     4.342374e-01
 4308.8015     4.344659e-01
 4312.7480     3.931111e-01
 4316.6944     4.571681e-01
 4320.6408     5.317290e-01
 4324.5872     5.350801e-01
 4328.5337     6.016814e-01
 4332.4801     6.768048e-01
 4336.4265     5.793640e-01
 4340.3729     5.736703e-01
 4344.3194     6.128581e-01
 4348.2658     5.875767e-01
 4352.2122     5.873315e-01
 4356.1586     6.221639e-01
 4360.1051     5.941550e-01
 4364.0515     6.140843e-01
 4367.9979     6.155489e-01
 4371.9443     6.403295e-01
 4375.8908     6.475493e-01
 4379.8372     6.079069e-01
 4383.7836     5.791330e-01
 4387.7300     5.368891e-01
 4391.6765     5.798012e-01
 4395.6229     5.271983e-01
 4399.5693     5.626696e-01
 4403.5157     5.923603e-01
 4407.4622     5.861577e-01
 4411.4086     5.610155e-01
 4415.3550     6.151057e-01
 4419.3014     6.407614e-01
 4423.2479     6.357246e-01
 4427.1943     5.895281e-01
 4431.1407     6.481240e-01
 4435.0871     6.638926e-01
 4439.0336     6.383157e-01
 4442.9800     6.517850e-01
 4446.9264     6.589276e-01
 4450.8728     6.862547e-01
 4454.8193     6.871494e-01
 4458.7657     6.765549e-01
 4462.7121     6.325987e-01
 4466.6585     6.337199e-01
 4470.6050     6.384798e-01
 4474.5514     6.441970e-01
 4478.4978     7.022794e-01
 4482.4442     7.540392e-01
 4486.3907     7.111477e-01
 4490.3371     7.080332e-01
 4494.2835     7.516037e-01
 4498.2299     7.384428e-01
 4502.1764     7.073418e-01
 4506.1228     7.376898e-01
 4510.0692     7.837062e-01
 4514.0156     7.668245e-01
 4517.9621     7.597349e-01
 4521.9085     7.345337e-01
 4525.8549     7.327439e-01
 4529.8013     7.190247e-01
 4533.7478     6.936328e-01
 4537.6942     6.959730e-01
 4541.6406     6.483139e-01
 4545.5870     6.896399e-01
 4549.5335     7.275596e-01
 4553.4799     7.272660e-01
 4557.4263     7.201542e-01
 4561.3727     7.643734e-01
 4565.3191     7.677007e-01
 4569.2656     8.217280e-01
 4573.2120     8.448686e-01
 4577.1584     8.192560e-01
 4581.1048     8.323627e-01
 4585.0513     8.133454e-01
 4588.9977     8.028563e-01
 4592.9441     8.048314e-01
 4596.8905     8.068283e-01
 4600.8370     8.178040e-01
 4604.7834     8.060177e-01
 4608.7298     8.272529e-01
 4612.6762     8.462514e-01
 4616.6227     8.330124e-01
 4620.5691     8.819476e-01
 4624.5155     8.906462e-01
 4628.4619     8.897726e-01
 4632.4084     9.130540e-01
 4636.3548     8.571149e-01
 4640.3012     8.774998e-01
 4644.2476     8.614476e-01
 4648.1941     7.983542e-01
 4652.1405     8.011695e-01
 4656.0869     8.472980e-01
 4660.0333     8.524171e-01
 4663.9798     8.372191e-01
 4667.9262     8.215125e-01
 4671.8726     8.303210e-01
 4675.8190     8.310248e-01
 4679.7655     8.059721e-01
 4683.7119     8.605940e-01
 4687.6583     8.344473e-01
 4691.6047     8.091322e-01
 4695.5512     8.144751e-01
 4699.4976     8.469857e-01
 4703.4440     8.216067e-01
 4707.3904     8.083372e-01
 4711.3369     8.340081e-01
 4715.2833     8.182009e-01
 4719.2297     8.538205e-01
 4723.1761     8.374667e-01
 4727.1226     8.623545e-01
 4731.0690     8.543308e-01
 4735.0154     8.412792e-01
 4738.9618     8.428628e-01
 4742.9083     8.470176e-01
 4746.8547     8.701960e-01
 4750.8011     8.687733e-01
 4754.7475     8.845843e-01
 4758.6940     8.988959e-01
 4762.6404     8.786035e-01
 4766.5868     8.436489e-01
 4770.5332     8.192201e-01
 4774.4797     8.245094e-01
 4778.4261     8.480668e-01
 4782.3725     8.585742e-01
 4786.3189     8.525363e-01
 4790.2654     8.675591e-01
 4794.2118     8.433645e-01
 4798.1582     8.730362e-01
 4802.1046     9.168283e-01
 4806.0511     8.977659e-01
 4809.9975     8.854382e-01
 4813.9439     8.959703e-01
 4817.8903     8.822550e-01
 4821.8367     9.103051e-01
 4825.7832     8.971530e-01
 4829.7296     9.128083e-01
 4833.6760     8.886295e-01
 4837.6224     8.858040e-01
 4841.5689     8.893245e-01
 4845.5153     8.766240e-01
 4849.4617     8.666487e-01
 4853.4081     8.745020e-01
 4857.3546     8.630571e-01
 4861.3010     8.343197e-01
 4865.2474     8.043535e-01
 4869.1938     7.899589e-01
 4873.1403     8.053846e-01
 4877.0867     8.137375e-01
 4881.0331     8.218270e-01
 4884.9795     8.485616e-01
 4888.9260     8.534397e-01
 4892.8724     8.438228e-01
 4896.8188     8.666252e-01
 4900.7652     8.666626e-01
 4904.7117     9.019669e-01
 4908.6581     9.195113e-01
 4912.6045     9.307144e-01
 4916.5509     8.881238e-01
 4920.4974     8.854903e-01
 4924.4438     8.250384e-01
 4928.3902     8.549963e-01
 4932.3366     8.627745e-01
 4936.2831     8.757796e-01
 4940.2295     9.042072e-01
 4944.1759     8.953218e-01
 4948.1223     9.476736e-01
 4952.0688     9.321554e-01
 4956.0152     9.567779e-01
 4959.9616     9.529778e-01
 4963.9080     9.200272e-01
 4967.8545     9.069475e-01
 4971.8009     9.063695e-01
 4975.7473     8.988285e-01
 4979.6937     8.774163e-01
 4983.6402     8.796030e-01
 4987.5866     8.463660e-01
 4991.5330     8.393165e-01
 4995.4794     8.397111e-01
 4999.4259     8.874887e-01
 5003.3723     8.661342e-01
 5007.3187     8.539528e-01
 5011.2651     8.289477e-01
 5015.2116     8.405933e-01
 5019.1580     8.450115e-01
 5023.1044     8.289071e-01
 5027.0508     8.033007e-01
 5030.9973     8.252639e-01
 5034.9437     8.453862e-01
 5038.8901     8.691950e-01
 5042.8365     8.483956e-01
 5046.7830     8.628958e-01
 5050.7294     8.815085e-01
 5054.6758     8.943221e-01
 5058.6222     8.703836e-01
 5062.5686     8.710362e-01
 5066.5151     9.052370e-01
 5070.4615     9.032515e-01
 5074.4079     9.069777e-01
 5078.3543     8.764425e-01
 5082.3008     8.633566e-01
 5086.2472     8.373500e-01
 5090.1936     8.273826e-01
 5094.1400     8.800405e-01
 5098.0865     8.824105e-01
 5102.0329     8.962690e-01
 5105.9793     8.858029e-01
 5109.9257     8.534966e-01
 5113.8722     8.506643e-01
 5117.8186     8.689812e-01
 5121.7650     8.775422e-01
 5125.7114     8.718300e-01
 5129.6579     8.630713e-01
 5133.6043     8.291983e-01
 5137.5507     8.557159e-01
 5141.4971     8.332182e-01
 5145.4436     8.337006e-01
 5149.3900     8.173275e-01
 5153.3364     8.216484e-01
 5157.2828     8.599647e-01
 5161.2293     8.484335e-01
 5165.1757     8.441657e-01
 5169.1221     8.102880e-01
 5173.0685     7.605984e-01
 5177.0150     7.301387e-01
 5180.9614     6.991035e-01
 5184.9078     6.901529e-01
 5188.8542     7.039107e-01
 5192.8007     7.541108e-01
 5196.7471     7.739840e-01
 5200.6935     8.280070e-01
 5204.6399     8.532586e-01
 5208.5864     8.421567e-01
 5212.5328     8.486112e-01
 5216.4792     8.605967e-01
 5220.4256     8.288392e-01
 5224.3721     8.917547e-01
 5228.3185     9.035224e-01
 5232.2649     9.064164e-01
 5236.2113     9.118189e-01
 5240.1578     9.236301e-01
 5244.1042     9.423145e-01
 5248.0506     9.388505e-01
 5251.9970     9.297999e-01
 5255.9435     9.431980e-01
 5259.8899     9.476675e-01
 5263.8363     9.356765e-01
 5267.7827     9.237114e-01
 5271.7292     8.915046e-01
 5275.6756     8.711706e-01
 5279.6220     8.793725e-01
 5283.5684     9.047601e-01
 5287.5149     9.502368e-01
 5291.4613     9.798025e-01
 5295.4077     9.897405e-01
 5299.3541     9.985175e-01
 5303.3006     9.940395e-01
 5307.2470     9.790833e-01
 5311.1934     1.020062e+00
 5315.1398     1.044302e+00
 5319.0862     1.061942e+00
 5323.0327     1.049191e+00
 5326.9791     1.004358e+00
 5330.9255     9.646640e-01
 5334.8719     9.550213e-01
 5338.8184     9.539055e-01
 5342.7648     9.608097e-01
 5346.7112     9.812174e-01
 5350.6576     9.820191e-01
 5354.6041     1.012953e+00
 5358.5505     1.010284e+00
 5362.4969     1.029490e+00
 5366.4433     1.077483e+00
 5370.3898     1.020355e+00
 5374.3362     1.019095e+00
 5378.2826     1.000233e+00
 5382.2290     1.008964e+00
 5386.1755     1.033195e+00
 5390.1219     1.036783e+00
 5394.0683     1.029711e+00
 5398.0147     9.972981e-01
 5401.9612     9.903169e-01
 5405.9076     1.003970e+00
 5409.8540     9.819672e-01
 5413.8004     9.724842e-01
 5417.7469     9.631876e-01
 5421.6933     9.571490e-01
 5425.6397     1.062440e+00
 5429.5861     1.008082e+00
 5433.5326     9.881074e-01
 5437.4790     1.008265e+00
 5441.4254     1.024584e+00
 5445.3718     1.012801e+00
 5449.3183     1.007802e+00
 5453.2647     1.007908e+00
 5457.2111     1.015151e+00
 5461.1575     9.742602e-01
 5465.1040     9.955778e-01
 5469.0504     9.902609e-01
 5472.9968     9.834485e-01
 5476.9432     9.867137e-01
 5480.8897     9.941869e-01
 5484.8361     1.020837e+00
 5488.7825     1.005134e+00
 5492.7289     9.891760e-01
 5496.6754     1.001005e+00
 5500.6218     1.009983e+00
 5504.5682     1.037679e+00
 5508.5146     1.003776e+00
 5512.4611     1.001600e+00
 5516.4075     9.788682e-01
 5520.3539     9.964356e-01
 5524.3003     9.944758e-01
 5528.2468     1.012354e+00
 5532.1932     9.917651e-01
 5536.1396     9.868417e-01
 5540.0860     1.002328e+00
 5544.0325     1.004623e+00
 5547.9789     1.000775e+00
 5551.9253     1.009643e+00
 5555.8717     1.018092e+00
 5559.8182     1.014300e+00
 5563.7646     1.046234e+00
 5567.7110     1.020358e+00
 5571.6574     1.015972e+00
 5575.6038     1.010109e+00
 5579.5503     1.022388e+00
 5583.4967     1.020307e+00
 5587.4431     1.003760e+00
 5591.3895     9.975027e-01
 5595.3360     9.791363e-01
 5599.2824     9.746929e-01
 5603.2288     9.954209e-01
 5607.1752     9.994035e-01
 5611.1217     9.899521e-01
 5615.0681     1.023697e+00
 5619.0145     1.036287e+00
 5622.9609     9.962831e-01
 5626.9074     9.963349e-01
 5630.8538     1.008120e+00
 5634.8002     1.014570e+00
 5638.7466     1.013894e+00
 5642.6931     1.020083e+00
 5646.6395     1.017398e+00
 5650.5859     1.016466e+00
 5654.5323     1.048831e+00
 5658.4788     1.041092e+00
 5662.4252     1.006875e+00
 5666.3716     9.871534e-01
 5670.3180     9.813623e-01
 5674.2645     1.003678e+00
 5678.2109     1.039734e+00
 5682.1573     1.021479e+00
 5686.1037     1.022474e+00
 5690.0502     1.025715e+00
 5693.9966     1.033364e+00
 5697.9430     1.008228e+00
 5701.8894     1.007807e+00
 5705.8359     1.049427e+00
 5709.7823     9.864424e-01
 5713.7287     9.830178e-01
 5717.6751     1.007433e+00
 5721.6216     1.006184e+00
 5725.5680     1.004657e+00
 5729.5144     1.037040e+00
 5733.4608     1.052970e+00
 5737.4073     1.038493e+00
 5741.3537     1.018841e+00
 5745.3001     1.049089e+00
 5749.2465     1.057476e+00
 5753.1930     1.066678e+00
 5757.1394     1.073031e+00
 5761.0858     1.031663e+00
 5765.0322     1.064894e+00
 5768.9787     1.069519e+00
 5772.9251     1.040494e+00
 5776.8715     1.084104e+00
 5780.8179     1.073328e+00
 5784.7644     1.057040e+00
 5788.7108     1.050706e+00
 5792.6572     9.829926e-01
 5796.6036     1.035514e+00
 5800.5501     1.034226e+00
 5804.4965     1.043498e+00
 5808.4429     1.061550e+00
 5812.3893     1.057894e+00
 5816.3357     1.049287e+00
 5820.2822     1.047734e+00
 5824.2286     1.036268e+00
 5828.1750     1.031744e+00
 5832.1214     1.058745e+00
 5836.0679     1.052050e+00
 5840.0143     1.021446e+00
 5843.9607     1.066526e+00
 5847.9071     1.013196e+00
 5851.8536     1.038323e+00
 5855.8000     1.043152e+00
 5859.7464     1.009463e+00
 5863.6928     9.815980e-01
 5867.6393     1.005869e+00
 5871.5857     1.014172e+00
 5875.5321     1.036186e+00
 5879.4785     1.063986e+00
 5883.4250     1.031678e+00
 5887.3714     1.018297e+00
 5891.3178     9.470189e-01
 5895.2642     8.883653e-01
 5899.2107     8.662762e-01
 5903.1571     8.718119e-01
 5907.1035     8.666077e-01
 5911.0499     9.327579e-01
 5914.9964     1.008019e+00
 5918.9428     1.005679e+00
 5922.8892     1.013548e+00
 5926.8356     1.004774e+00
 5930.7821     1.030634e+00
 5934.7285     1.051604e+00
 5938.6749     1.012584e+00
 5942.6213     1.042130e+00
 5946.5678     1.068879e+00
 5950.5142     1.002376e+00
 5954.4606     1.040078e+00
 5958.4070     1.002787e+00
 5962.3535     9.990787e-01
 5966.2999     1.010137e+00
 5970.2463     1.016872e+00
 5974.1927     1.014330e+00
 5978.1392     1.020046e+00
 5982.0856     1.037127e+00
 5986.0320     1.008798e+00
 5989.9784     1.006929e+00
 5993.9249     1.009166e+00
 5997.8713     9.857031e-01
 6001.8177     9.940283e-01
 6005.7641     9.957373e-01
 6009.7106     1.017429e+00
 6013.6570     9.947479e-01
 6017.6034     1.026784e+00
 6021.5498     9.877101e-01
 6025.4963     9.453519e-01
 6029.4427     9.975427e-01
 6033.3891     9.994174e-01
 6037.3355     1.032232e+00
 6041.2820     1.007202e+00
 6045.2284     1.024178e+00
 6049.1748     1.050488e+00
 6053.1212     1.030131e+00
 6057.0677     1.045609e+00
 6061.0141     1.032633e+00
 6064.9605     1.032535e+00
 6068.9069     1.058928e+00
 6072.8533     1.039301e+00
 6076.7998     1.048624e+00
 6080.7462     1.044444e+00
 6084.6926     1.035279e+00
 6088.6390     1.030231e+00
 6092.5855     1.035364e+00
 6096.5319     1.027496e+00
 6100.4783     1.017352e+00
 6104.4247     1.012724e+00
 6108.3712     1.021201e+00
 6112.3176     1.013548e+00
 6116.2640     1.038888e+00
 6120.2104     1.007649e+00
 6124.1569     1.016366e+00
 6128.1033     1.031324e+00
 6132.0497     1.017856e+00
 6135.9961     1.026983e+00
 6139.9426     9.873223e-01
 6143.8890     1.013508e+00
 6147.8354     9.888036e-01
 6151.7818     1.007036e+00
 6155.7283     1.016619e+00
 6159.6747     1.015174e+00
 6163.6211     9.781275e-01
 6167.5675     9.755285e-01
 6171.5140     9.426239e-01
 6175.4604     9.564539e-01
 6179.4068     9.223435e-01
 6183.3532     9.541956e-01
 6187.2997     9.740220e-01
 6191.2461     9.637284e-01
 6195.1925     9.689329e-01
 6199.1389     9.576727e-01
 6203.0854     9.729495e-01
 6207.0318     9.663567e-01
 6210.9782     9.683049e-01
 6214.9246     9.829985e-01
 6218.8711     9.882858e-01
 6222.8175     9.439611e-01
 6226.7639     9.272370e-01
 6230.7103     9.293583e-01
 6234.6568     9.252796e-01
 6238.6032     9.207858e-01
 6242.5496     9.266884e-01
 6246.4960     8.950809e-01
 6250.4425     8.856440e-01
 6254.3889     9.081708e-01
 6258.3353     9.165969e-01
 6262.2817     8.935138e-01
 6266.2282     9.257516e-01
 6270.1746     9.089766e-01
 6274.1210     9.272141e-01
 6278.0674     9.352388e-01
 6282.0139     9.613738e-01
 6285.9603     9.811670e-01
 6289.9067     9.825432e-01
 6293.8531     9.750516e-01
 6297.7996     9.901680e-01
 6301.7460     9.906915e-01
 6305.6924     9.662828e-01
 6309.6388     9.971893e-01
 6313.5853     9.850882e-01
 6317.5317     9.812547e-01
 6321.4781     1.005188e+00
 6325.4245     9.960712e-01
 6329.3709     9.899227e-01
 6333.3174     9.976550e-01
 6337.2638     9.953072e-01
 6341.2102     1.001956e+00
 6345.1566     1.002423e+00
 6349.1031     1.002919e+00
 6353.0495     1.006019e+00
 6356.9959     9.877541e-01
 6360.9423     9.906853e-01
 6364.8888     9.993485e-01
 6368.8352     9.986388e-01
 6372.7816     1.003484e+00
 6376.7280     1.021137e+00
 6380.6745     1.031996e+00
 6384.6209     1.028037e+00
 6388.5673     1.048317e+00
 6392.5137     1.011336e+00
 6396.4602     1.022617e+00
 6400.4066     1.006020e+00
 6404.3530     1.003021e+00
 6408.2994     1.013044e+00
 6412.2459     1.020470e+00
 6416.1923     1.029669e+00
 6420.1387     1.050651e+00
 6424.0851     1.004155e+00
 6428.0316     1.006982e+00
 6431.9780     1.015757e+00
 6435.9244     1.008206e+00
 6439.8708     1.024750e+00
 6443.8173     1.022332e+00
 6447.7637     1.048904e+00
 6451.7101     1.032001e+00
 6455.6565     1.027236e+00
 6459.6030     1.032470e+00
 6463.5494     1.048874e+00
 6467.4958     1.033810e+00
 6471.4422     1.024600e+00
 6475.3887     1.037065e+00
 6479.3351     1.029251e+00
 6483.2815     1.051054e+00
 6487.2279     1.041948e+00
 6491.1744     1.028794e+00
 6495.1208     1.009267e+00
 6499.0672     9.779054e-01
 6503.0136     9.922086e-01
 6506.9601     9.668564e-01
 6510.9065     1.006604e+00
 6514.8529     1.009232e+00
 6518.7993     1.021070e+00
 6522.7458     1.017117e+00
 6526.6922     1.020286e+00
 6530.6386     1.040859e+00
 6534.5850     1.030475e+00
 6538.5315     1.046672e+00
 6542.4779     1.043585e+00
 6546.4243     1.047116e+00
 6550.3707     1.060490e+00
 6554.3172     1.026104e+00
 6558.2636     1.013784e+00
 6562.2100     9.951471e-01
 6566.1564     9.721259e-01
 6570.1029     9.477581e-01
 6574.0493     9.482841e-01
 6577.9957     9.707760e-01
 6581.9421     9.870396e-01
 6585.8885     9.879116e-01
 6589.8350     1.028785e+00
 6593.7814     1.043432e+00
 6597.7278     1.024902e+00
 6601.6742     1.008286e+00
 6605.6207     1.034167e+00
 6609.5671     9.950399e-01
 6613.5135     1.007111e+00
 6617.4599     1.016738e+00
 6621.4064     9.983590e-01
 6625.3528     1.026295e+00
 6629.2992     1.005846e+00
 6633.2456     1.029710e+00
 6637.1921     1.003830e+00
 6641.1385     1.016358e+00
 6645.0849     1.008296e+00
 6649.0313     9.902143e-01
 6652.9778     1.010952e+00
 6656.9242     1.017800e+00
 6660.8706     1.001733e+00
 6664.8170     1.002599e+00
 6668.7635     1.005764e+00
 6672.7099     1.012628e+00
 6676.6563     1.008366e+00
 6680.6027     1.015197e+00
 6684.5492     1.039282e+00
 6688.4956     1.016573e+00
 6692.4420     9.976551e-01
 6696.3884     1.007754e+00
 6700.3349     1.014276e+00
 6704.2813     1.014685e+00
 6708.2277     1.001095e+00
 6712.1741     9.923894e-01
 6716.1206     1.000888e+00
 6720.0670     1.002956e+00
 6724.0134     9.984306e-01
 6727.9598     9.980948e-01
 6731.9063     1.002397e+00
 6735.8527     1.017452e+00
 6739.7991     1.014416e+00
 6743.7455     1.013496e+00
 6747.6920     1.005320e+00
 6751.6384     1.019558e+00
 6755.5848     1.033035e+00
 6759.5312     1.021733e+00
 6763.4777     1.040490e+00
 6767.4241     1.031586e+00
 6771.3705     1.029458e+00
 6775.3169     1.045560e+00
 6779.2634     1.063311e+00
 6783.2098     1.076930e+00
 6787.1562     1.055057e+00
 6791.1026     1.073422e+00
 6795.0491     1.077437e+00
 6798.9955     1.041817e+00
 6802.9419     1.067585e+00
 6806.8883     1.074361e+00
 6810.8348     1.056793e+00
 6814.7812     1.094845e+00
 6818.7276     1.088507e+00
 6822.6740     1.022969e+00
 6826.6204     9.169483e-01
 6830.5669     8.851409e-01
 6834.5133     8.676375e-01
 6838.4597     9.023587e-01
 6842.4061     9.306698e-01
 6846.3526     9.508572e-01
 6850.2990     9.603391e-01
 6854.2454     9.360633e-01
 6858.1918     9.554871e-01
 6862.1383     1.005130e+00
 6866.0847     1.011177e+00
 6870.0311     1.027956e+00
 6873.9775     1.051207e+00
 6877.9240     1.088529e+00
 6881.8704     1.079180e+00
 6885.8168     1.099756e+00
 6889.7632     1.103118e+00
 6893.7097     1.105097e+00
 6897.6561     1.101052e+00
 6901.6025     1.150412e+00
 6905.5489     1.120170e+00
 6909.4954     1.125665e+00
 6913.4418     1.122798e+00
 6917.3882     1.111684e+00
 6921.3346     1.140924e+00
 6925.2811     1.165534e+00
 6929.2275     1.157130e+00
 6933.1739     1.166947e+00
 6937.1203     1.173355e+00
 6941.0668     1.151658e+00
 6945.0132     1.153345e+00
 6948.9596     1.168289e+00
 6952.9060     1.156006e+00
 6956.8525     1.161495e+00
 6960.7989     1.173755e+00
 6964.7453     1.138657e+00
 6968.6917     1.122048e+00
 6972.6382     1.165049e+00
 6976.5846     1.162999e+00
 6980.5310     1.166281e+00
 6984.4774     1.163112e+00
 6988.4239     1.160304e+00
 6992.3703     1.173352e+00
 6996.3167     1.168610e+00
 7000.2631     1.183796e+00
 7004.2096     1.179532e+00
 7008.1560     1.169575e+00
 7012.1024     1.173582e+00
 7016.0488     1.160360e+00
 7019.9953     1.165463e+00
 7023.9417     1.162091e+00
 7027.8881     1.189272e+00
 7031.8345     1.171447e+00
 7035.7810     1.158290e+00
 7039.7274     1.178669e+00
 7043.6738     1.166027e+00
 7047.6202     1.158971e+00
 7051.5667     1.189784e+00
 7055.5131     1.188572e+00
 7059.4595     1.149220e+00
 7063.4059     1.156930e+00
 7067.3524     1.141770e+00
 7071.2988     1.112266e+00
 7075.2452     1.078377e+00
 7079.1916     1.104834e+00
 7083.1380     1.103708e+00
 7087.0845     1.105587e+00
 7091.0309     1.074452e+00
 7094.9773     1.078369e+00
 7098.9237     1.068006e+00
 7102.8702     1.065477e+00
 7106.8166     1.082175e+00
 7110.7630     1.059676e+00
 7114.7094     1.044386e+00
 7118.6559     1.035320e+00
 7122.6023     1.019661e+00
 7126.5487     1.009826e+00
 7130.4951     9.766341e-01
 7134.4416     9.505310e-01
 7138.3880     9.468469e-01
 7142.3344     9.311103e-01
 7146.2808     9.102077e-01
 7150.2273     9.138328e-01
 7154.1737     9.401323e-01
 7158.1201     9.228268e-01
 7162.0665     8.833990e-01
 7166.0130     9.671685e-01
 7169.9594     9.688678e-01
 7173.9058     1.002681e+00
 7177.8522     1.028105e+00
 7181.7987     1.006363e+00
 7185.7451     9.840593e-01
 7189.6915     1.007852e+00
 7193.6379     9.687182e-01
 7197.5844     9.664832e-01
 7201.5308     9.633275e-01
 7205.4772     9.483465e-01
 7209.4236     9.805738e-01
 7213.3701     9.886804e-01
 7217.3165     9.610762e-01
 7221.2629     9.826089e-01
 7225.2093     9.779531e-01
 7229.1558     1.007087e+00
 7233.1022     1.040723e+00
 7237.0486     1.041237e+00
 7240.9950     1.029280e+00
 7244.9415     1.027809e+00
 7248.8879     1.019682e+00
 7252.8343     1.012204e+00
 7256.7807     1.009850e+00
 7260.7272     1.027173e+00
 7264.6736     1.042053e+00
 7268.6200     1.049767e+00
 7272.5664     1.060835e+00
 7276.5129     1.089930e+00
 7280.4593     1.087542e+00
 7284.4057     1.048553e+00
 7288.3521     1.077173e+00
 7292.2986     1.102877e+00
 7296.2450     1.054293e+00
 7300.1914     1.055084e+00
 7304.1378     1.071164e+00
 7308.0843     1.113025e+00
 7312.0307     1.135187e+00
 7315.9771     1.121749e+00
 7319.9235     1.115260e+00
 7323.8700     1.114776e+00
 7327.8164     1.099792e+00
 7331.7628     1.110620e+00
 7335.7092     1.114655e+00
 7339.6556     1.135354e+00
 7343.6021     1.138566e+00
 7347.5485     1.148524e+00
 7351.4949     1.146964e+00
 7355.4413     1.140073e+00
 7359.3878     1.153862e+00
 7363.3342     1.156434e+00
 7367.2806     1.156332e+00
 7371.2270     1.145316e+00
 7375.1735     1.161155e+00
 7379.1199     1.205813e+00
 7383.0663     1.198483e+00
 7387.0127     1.225363e+00
 7390.9592     1.203235e+00
 7394.9056     1.186688e+00
 7398.8520     1.167567e+00
 7402.7984     1.164480e+00
 7406.7449     1.194708e+00
 7410.6913     1.192595e+00
 7414.6377     1.194219e+00
 7418.5841     1.198879e+00
 7422.5306     1.203872e+00
 7426.4770     1.188691e+00
 7430.4234     1.231933e+00
 7434.3698     1.226473e+00
 7438.3163     1.177728e+00
 7442.2627     1.203640e+00
 7446.2091     1.188917e+00
 7450.1555     1.227479e+00
 7454.1020     1.226644e+00
 7458.0484     1.224932e+00
 7461.9948     1.213636e+00
 7465.9412     1.224722e+00
 7469.8877     1.170055e+00
 7473.8341     1.197378e+00
 7477.7805     1.221191e+00
 7481.7269     1.199433e+00
 7485.6734     1.202839e+00
 7489.6198     1.196020e+00
 7493.5662     1.189244e+00
 7497.5126     1.172531e+00
 7501.4591     1.177357e+00
 7505.4055     1.218590e+00
 7509.3519     1.191837e+00
 7513.2983     1.187600e+00
 7517.2448     1.221987e+00
 7521.1912     1.241039e+00
 7525.1376     1.237161e+00
 7529.0840     1.212834e+00
 7533.0305     1.228996e+00
 7536.9769     1.180211e+00
 7540.9233     1.161392e+00
 7544.8697     1.013258e+00
 7548.8162     7.841329e-01
 7552.7626     5.388244e-01
 7556.7090     3.527553e-01
 7560.6554     3.254358e-01
 7564.6019     4.297680e-01
 7568.5483     5.586457e-01
 7572.4947     6.233581e-01
 7576.4411     6.659765e-01
 7580.3876     6.441216e-01
 7584.3340     5.609326e-01
 7588.2804     5.591610e-01
 7592.2268     6.023717e-01
 7596.1732     6.487861e-01
 7600.1197     7.295857e-01
 7604.0661     7.855179e-01
 7608.0125     8.639048e-01
 7611.9589     8.810120e-01
 7615.9054     9.514123e-01
 7619.8518     9.781928e-01
 7623.7982     9.939503e-01
 7627.7446     1.015202e+00
 7631.6911     1.034189e+00
 7635.6375     1.054115e+00
 7639.5839     1.088867e+00
 7643.5303     1.092650e+00
 7647.4768     1.085629e+00
 7651.4232     1.084267e+00
 7655.3696     1.113642e+00
 7659.3160     1.107363e+00
 7663.2625     1.096706e+00
 7667.2089     1.061200e+00
 7671.1553     1.060187e+00
 7675.1017     1.046725e+00
 7679.0482     1.063491e+00
 7682.9946     1.047305e+00
 7686.9410     1.076929e+00
 7690.8874     1.065741e+00
 7694.8339     1.063701e+00
 7698.7803     1.092805e+00
 7702.7267     1.062832e+00
 7706.6731     1.045103e+00
 7710.6196     1.002750e+00
 7714.5660     1.027357e+00
 7718.5124     1.028411e+00
 7722.4588     9.916292e-01
 7726.4053     9.938890e-01
 7730.3517     1.017909e+00
 7734.2981     1.052279e+00
 7738.2445     1.065548e+00
 7742.1910     1.027285e+00
 7746.1374     1.030147e+00
 7750.0838     1.042467e+00
 7754.0302     1.054356e+00
 7757.9767     1.050006e+00
 7761.9231     1.046218e+00
 7765.8695     1.034600e+00
 7769.8159     1.054184e+00
 7773.7624     1.057220e+00
 7777.7088     1.043617e+00
 7781.6552     1.007334e+00
 7785.6016     1.035698e+00
 7789.5481     1.037575e+00
 7793.4945     1.028630e+00
 7797.4409     1.047701e+00
 7801.3873     1.097657e+00
 7805.3338     1.096030e+00
 7809.2802     1.099504e+00
 7813.2266     1.118577e+00
 7817.1730     1.061380e+00
 7821.1195     1.049721e+00
 7825.0659     1.061657e+00
 7829.0123     1.024531e+00
 7832.9587     1.008886e+00
 7836.9051     1.048007e+00
 7840.8516     1.020571e+00
 7844.7980     9.944764e-01
 7848.7444     1.028409e+00
 7852.6908     1.062084e+00
 7856.6373     1.025592e+00
 7860.5837     1.061191e+00
 7864.5301     1.014371e+00
 7868.4765     1.049737e+00
 7872.4230     1.024590e+00
 7876.3694     1.016209e+00
 7880.3158     9.779782e-01
 7884.2622     1.009547e+00
 7888.2087     9.961346e-01
 7892.1551     1.005064e+00
 7896.1015     1.031647e+00
 7900.0479     1.030787e+00
 7903.9944     1.026358e+00
 7907.9408     1.015804e+00
 7911.8872     1.000772e+00
 7915.8336     1.028229e+00
 7919.7801     1.048512e+00
 7923.7265     1.026106e+00
 7927.6729     9.912723e-01
 7931.6193     9.498215e-01
 7935.5658     9.808666e-01
 7939.5122     9.259217e-01
 7943.4586     9.346471e-01
 7947.4050     1.001452e+00
 7951.3515     9.591699e-01
 7955.2979     9.277289e-01
 7959.2443     9.826009e-01
 7963.1907     1.002892e+00
 7967.1372     1.045743e+00
 7971.0836     1.073074e+00
 7975.0300     1.057089e+00
 7978.9764     1.070695e+00
 7982.9229     1.032104e+00
 7986.8693     9.951774e-01
 7990.8157     1.007658e+00
 7994.7621     9.967438e-01
 7998.7086     1.030428e+00
 8002.6550     1.041856e+00
 8006.6014     1.025206e+00
 8010.5478     1.085396e+00
 8014.4943     1.020137e+00
 8018.4407     1.053142e+00
 8022.3871     9.961293e-01
 8026.3335     9.453851e-01
 8030.2800     9.589219e-01
 8034.2264     9.929367e-01
 8038.1728     9.711429e-01
 8042.1192     1.016952e+00
 8046.0657     1.074455e+00
 8050.0121     1.066960e+00
 8053.9585     1.059157e+00
 8057.9049     1.042528e+00
 8061.8514     1.038336e+00
 8065.7978     1.012339e+00
 8069.7442     9.910066e-01
 8073.6906     9.573594e-01
 8077.6371     9.574544e-01
 8081.5835     9.877545e-01
 8085.5299     1.006203e+00
 8089.4763     1.005228e+00
 8093.4227     9.790522e-01
 8097.3692     9.819033e-01
 8101.3156     9.306157e-01
 8105.2620     9.105925e-01
 8109.2084     9.076796e-01
 8113.1549     8.645151e-01
 8117.1013     9.083022e-01
 8121.0477     9.608266e-01
 8124.9941     9.884919e-01
 8128.9406     9.569581e-01
 8132.8870     1.006725e+00
 8136.8334     1.018648e+00
 8140.7798     9.817778e-01
 8144.7263     9.423305e-01
 8148.6727     9.347310e-01
 8152.6191     1.004222e+00
 8156.5655     1.027970e+00
 8160.5120     1.107842e+00
 8164.4584     1.146418e+00
 8168.4048     1.112729e+00
 8172.3512     1.039520e+00
 8176.2977     9.924840e-01
 8180.2441     9.775501e-01
 8184.1905     9.307340e-01
 8188.1369     9.623622e-01
 8192.0834     9.620277e-01
 8196.0298     9.473593e-01
 8199.9762     9.385991e-01
 8203.9226     9.671933e-01
 8207.8691     1.014499e+00
 8211.8155     1.018855e+00
 8215.7619     1.045156e+00
 8219.7083     1.112647e+00
 8223.6548     1.054149e+00
 8227.6012     1.009481e+00
 8231.5476     9.930307e-01
 8235.4940     9.560175e-01
 8239.4405     9.365246e-01
 8243.3869     9.774867e-01
 8247.3333     1.010025e+00
 8251.2797     1.050803e+00
 8255.2262     1.047077e+00
 8259.1726     1.055613e+00
 8263.1190     1.085069e+00
 8267.0654     1.037022e+00
 8271.0119     1.008581e+00
 8274.9583     1.048567e+00
 8278.9047     1.051641e+00
 8282.8511     1.063438e+00
 8286.7976     1.085660e+00
 8290.7440     1.086546e+00
 8294.6904     1.067206e+00
 8298.6368     1.096598e+00
 8302.5833     1.076800e+00
 8306.5297     1.094216e+00
 8310.4761     1.079548e+00
 8314.4225     1.047388e+00
 8318.3690     1.058351e+00
 8322.3154     1.029545e+00
 8326.2618     1.036479e+00
 8330.2082     1.008210e+00
 8334.1547     1.017589e+00
 8338.1011     1.045537e+00
 8342.0475     1.018498e+00
 8345.9939     1.049441e+00
 8349.9403     1.017403e+00
 8353.8868     1.020851e+00
 8357.8332     1.090368e+00
 8361.7796     1.043138e+00
 8365.7260     1.076419e+00
 8369.6725     1.112740e+00
 8373.6189     1.135218e+00
 8377.5653     1.172115e+00
 8381.5117     1.111586e+00
 8385.4582     1.107434e+00
 8389.4046     1.082824e+00
 8393.3510     9.872656e-01
 8397.2974     1.041170e+00
 8401.2439     1.015963e+00
 8405.1903     1.097749e+00
 8409.1367     1.041689e+00
 8413.0831     1.051934e+00
 8417.0296     1.022489e+00
 8420.9760     1.059670e+00
 8424.9224     1.094973e+00
 8428.8688     1.075159e+00
 8432.8153     1.144426e+00
 8436.7617     1.138622e+00
 8440.7081     1.110857e+00
 8444.6545     1.139414e+00
 8448.6010     1.177485e+00
 8452.5474     1.148410e+00
 8456.4938     1.047559e+00
 8460.4402     1.050010e+00
 8464.3867     1.000609e+00
 8468.3331     9.825528e-01
 8472.2795     9.803223e-01
 8476.2259     1.002079e+00
 8480.1724     1.003314e+00
 8484.1188     1.031699e+00
 8488.0652     1.088944e+00
 8492.0116     1.104520e+00
 8495.9581     1.065236e+00
 8499.9045     1.081602e+00
 8503.8509     9.520135e-01
 8507.7973     9.908850e-01
 8511.7438     1.062056e+00
 8515.6902     1.099125e+00
 8519.6366     1.053372e+00
 8523.5830     1.018955e+00
 8527.5295     1.010134e+00
 8531.4759     1.012390e+00
 8535.4223     9.933776e-01
 8539.3687     9.586740e-01
 8543.3152     9.104120e-01
 8547.2616     9.248884e-01
 8551.2080     9.350120e-01
 8555.1544     9.742724e-01
 8559.1009     1.027423e+00
 8563.0473     1.134312e+00
 8566.9937     1.122945e+00
 8570.9401     1.153251e+00
 8574.8866     1.164332e+00
 8578.8330     1.184968e+00
 8582.7794     1.249677e+00
 8586.7258     1.237313e+00
 8590.6722     1.177484e+00
 8594.6187     1.147591e+00
 8598.5651     1.045786e+00
 8602.5115     1.027563e+00
 8606.4579     9.348224e-01
 8610.4044     9.351663e-01
 8614.3508     9.776297e-01
 8618.2972     9.799677e-01
 8622.2436     1.049463e+00
 8626.1901     1.064268e+00
 8630.1365     1.082883e+00
 8634.0829     1.157963e+00
 8638.0293     1.253750e+00
 8641.9758     1.130950e+00
 8645.9222     -8.399263e-03
 8649.8686     -1.000523e-02
 8653.8150     -6.360489e-03
 8657.7615     -5.340079e-05
 8661.7079     1.306651e-04
