# ngc_0232_drift_040_060.txt
# RA = 10.69229 [degree, J2000]
# DEC = -23.56665 [degree, J2000]
# APERTURE = 60 x 40 [sq. arcsec]
# POSANGLE = 90 [degree, N-->E]
# 
# 1 Wavelength [Angstrom]
# 2 Spectrum   [erg/s/cm2/A]
# 3 Error      [erg/s/cm2/A]
# 4 Sky        [erg/s/cm2/A]
# 
  3667.94    4.41840E-15    1.01382E-15    4.88227E-14
  3670.69    2.99122E-15    9.72639E-16    4.54697E-14
  3673.44    2.09719E-15    9.31656E-16    4.18337E-14
  3676.19    2.79493E-15    9.01639E-16    3.79434E-14
  3678.94    3.83787E-15    8.81585E-16    3.50224E-14
  3681.69    4.24750E-15    8.60261E-16    3.26232E-14
  3684.44    4.79622E-15    8.39520E-16    3.03839E-14
  3687.19    3.94986E-15    8.19139E-16    2.94236E-14
  3689.94    3.36150E-15    8.05248E-16    2.91329E-14
  3692.69    4.21257E-15    8.06137E-16    2.93798E-14
  3695.44    3.01674E-15    8.01058E-16    3.04039E-14
  3698.19    2.91770E-15    8.10776E-16    3.26765E-14
  3700.94    5.33008E-15    8.52793E-16    3.67232E-14
  3703.69    4.31381E-15    8.82288E-16    4.24974E-14
  3706.44    3.47310E-15    9.06846E-16    4.77055E-14
  3709.19    3.19697E-15    9.07858E-16    4.90498E-14
  3711.94    3.18089E-15    8.91692E-16    4.74972E-14
  3714.69    2.44815E-15    8.63796E-16    4.49347E-14
  3717.44    3.18090E-15    8.42388E-16    4.18222E-14
  3720.19    5.05946E-15    8.30125E-16    3.82046E-14
  3722.94    3.62749E-15    7.99748E-16    3.54800E-14
  3725.69    3.30322E-15    7.72109E-16    3.30572E-14
  3728.44    3.15981E-15    7.53668E-16    3.28112E-14
  3731.19    4.03684E-15    7.63956E-16    3.42036E-14
  3733.94    4.00071E-15    7.96548E-16    3.87326E-14
  3736.69    5.86394E-15    8.45081E-16    4.50765E-14
  3739.44    6.81086E-15    8.79567E-16    5.12673E-14
  3742.19    5.27567E-15    8.99769E-16    5.73716E-14
  3744.94    4.67939E-15    9.05595E-16    5.98960E-14
  3747.69    4.72888E-15    8.90675E-16    5.83606E-14
  3750.44    3.26972E-15    8.50477E-16    5.38915E-14
  3753.19    4.90637E-15    8.22959E-16    4.83996E-14
  3755.94    5.05703E-15    7.98749E-16    4.50599E-14
  3758.69    4.99231E-15    7.81864E-16    4.31299E-14
  3761.44    5.85241E-15    7.68527E-16    4.07822E-14
  3764.19    4.92896E-15    7.37066E-16    3.71748E-14
  3766.94    5.40485E-15    7.13619E-16    3.39254E-14
  3769.69    3.90377E-15    6.89125E-16    3.25439E-14
  3772.44    4.22079E-15    6.82520E-16    3.18727E-14
  3775.19    4.44020E-15    6.84131E-16    3.25169E-14
  3777.94    4.80584E-15    6.94633E-16    3.45208E-14
  3780.69    4.82496E-15    6.95144E-16    3.50997E-14
  3783.44    4.56847E-15    6.83011E-16    3.40977E-14
  3786.19    4.95342E-15    6.73927E-16    3.30614E-14
  3788.94    4.35035E-15    6.61607E-16    3.22926E-14
  3791.69    5.28526E-15    6.59874E-16    3.17852E-14
  3794.44    5.06847E-15    6.65618E-16    3.30331E-14
  3797.19    4.75942E-15    6.66080E-16    3.40567E-14
  3799.94    4.18974E-15    6.63733E-16    3.47614E-14
  3802.69    4.41985E-15    6.49927E-16    3.28504E-14
  3805.44    5.60953E-15    6.42255E-16    3.11032E-14
  3808.19    5.58089E-15    6.31474E-16    2.98856E-14
  3810.94    7.09468E-15    6.38552E-16    2.95239E-14
  3813.69    7.74380E-15    6.59221E-16    3.00721E-14
  3816.44    1.00878E-14    7.14122E-16    3.21411E-14
  3819.19    9.47877E-15    7.10928E-16    3.52997E-14
  3821.94    8.85699E-15    6.84513E-16    3.66849E-14
  3824.69    7.13681E-15    6.65098E-16    3.64075E-14
  3827.44    6.17838E-15    6.50723E-16    3.57034E-14
  3830.19    5.84193E-15    6.63696E-16    3.84692E-14
  3832.94    5.35249E-15    6.92990E-16    4.46049E-14
  3835.69    4.90258E-15    7.21888E-16    5.06205E-14
  3838.44    3.17829E-15    7.21570E-16    5.29917E-14
  3841.19    4.76703E-15    7.06544E-16    4.90854E-14
  3843.94    4.88787E-15    6.78851E-16    4.48260E-14
  3846.69    6.18511E-15    6.64802E-16    4.19497E-14
  3849.44    5.77296E-15    6.51809E-16    4.05476E-14
  3852.19    5.70159E-15    6.37931E-16    3.85172E-14
  3854.94    6.11405E-15    6.20887E-16    3.57294E-14
  3857.69    4.51195E-15    5.95190E-16    3.36018E-14
  3860.44    5.98155E-15    5.83212E-16    3.08864E-14
  3863.19    5.96850E-15    5.68464E-16    2.91390E-14
  3865.94    6.28244E-15    5.61891E-16    2.83028E-14
  3868.69    5.99656E-15    5.53099E-16    2.74504E-14
  3871.44    6.77974E-15    5.49350E-16    2.67516E-14
  3874.19    7.14692E-15    5.36229E-16    2.48065E-14
  3876.94    7.42540E-15    5.27979E-16    2.37178E-14
  3879.69    6.67587E-15    5.20626E-16    2.36783E-14
  3882.44    5.97226E-15    5.11929E-16    2.34921E-14
  3885.19    5.45850E-15    5.00082E-16    2.27428E-14
  3887.94    5.32914E-15    4.85859E-16    2.11997E-14
  3890.69    5.29141E-15    4.78314E-16    2.04244E-14
  3893.44    5.80437E-15    4.76813E-16    2.01861E-14
  3896.19    5.54647E-15    4.80479E-16    2.12612E-14
  3898.94    5.84278E-15    4.87375E-16    2.23076E-14
  3901.69    5.70822E-15    4.95967E-16    2.40960E-14
  3904.44    6.72720E-15    5.11233E-16    2.58843E-14
  3907.19    7.17564E-15    5.33959E-16    2.97962E-14
  3909.94    6.36312E-15    5.58515E-16    3.50526E-14
  3912.69    6.93289E-15    5.83088E-16    3.91315E-14
  3915.44    5.94356E-15    5.82437E-16    4.06813E-14
  3918.19    5.36330E-15    5.69746E-16    3.92540E-14
  3920.94    5.05142E-15    5.47120E-16    3.58577E-14
  3923.69    5.09522E-15    5.21904E-16    3.14937E-14
  3926.44    5.00659E-15    4.99971E-16    2.83266E-14
  3929.19    4.71080E-15    4.81003E-16    2.57304E-14
  3931.94    4.50526E-15    4.70110E-16    2.45902E-14
  3934.69    4.91337E-15    4.66075E-16    2.36624E-14
  3937.44    6.25088E-15    4.66215E-16    2.29860E-14
  3940.19    6.71600E-15    4.72225E-16    2.37635E-14
  3942.94    6.91206E-15    4.90130E-16    2.68388E-14
  3945.69    6.47303E-15    5.14606E-16    3.15076E-14
  3948.44    7.62240E-15    5.25249E-16    3.30063E-14
  3951.19    5.18286E-15    5.13891E-16    3.36019E-14
  3953.94    6.95237E-15    5.06381E-16    3.09647E-14
  3956.69    7.20318E-15    4.99512E-16    2.97966E-14
  3959.44    8.16590E-15    4.89396E-16    2.74206E-14
  3962.19    6.75801E-15    4.75566E-16    2.63946E-14
  3964.94    6.93972E-15    4.63414E-16    2.46238E-14
  3967.69    6.35939E-15    4.47894E-16    2.27372E-14
  3970.44    6.99066E-15    4.36608E-16    2.06919E-14
  3973.19    6.65352E-15    4.29832E-16    1.99687E-14
  3975.94    6.51209E-15    4.31378E-16    2.04707E-14
  3978.69    5.17934E-15    4.42684E-16    2.37658E-14
  3981.44    5.81928E-15    4.59319E-16    2.60544E-14
  3984.19    6.07655E-15    4.67646E-16    2.74852E-14
  3986.94    5.63660E-15    4.64939E-16    2.76058E-14
  3989.69    6.03978E-15    4.62132E-16    2.69416E-14
  3992.44    6.46756E-15    4.58904E-16    2.64289E-14
  3995.19    6.22919E-15    4.52766E-16    2.58968E-14
  3997.94    6.63703E-15    4.53660E-16    2.56169E-14
  4000.69    7.07622E-15    4.50482E-16    2.49046E-14
  4003.44    7.04503E-15    4.50314E-16    2.50457E-14
  4006.19    8.04010E-15    4.57366E-16    2.56239E-14
  4008.94    7.27806E-15    4.63626E-16    2.74647E-14
  4011.69    8.47615E-15    4.79968E-16    2.95231E-14
  4014.44    7.50345E-15    4.90098E-16    3.26977E-14
  4017.19    7.66259E-15    4.96802E-16    3.39332E-14
  4019.94    7.67157E-15    4.95143E-16    3.33794E-14
  4022.69    6.11697E-15    4.78678E-16    3.21476E-14
  4025.44    4.69524E-15    4.65214E-16    3.10876E-14
  4028.19    3.90077E-15    4.59406E-16    3.10423E-14
  4030.94    4.61282E-15    4.55835E-16    2.98157E-14
  4033.69    4.83006E-15    4.52259E-16    2.90226E-14
  4036.44    5.96294E-15    4.50767E-16    2.78148E-14
  4039.19    6.75744E-15    4.54406E-16    2.78361E-14
  4041.94    7.78897E-15    4.64869E-16    2.92411E-14
  4044.69    7.59644E-15    4.78496E-16    3.19155E-14
  4047.44    8.11281E-15    5.06175E-16    3.69798E-14
  4050.19    7.64775E-15    5.27526E-16    4.16993E-14
  4052.94    7.46733E-15    5.29874E-16    4.28629E-14
  4055.69    5.57811E-15    5.03312E-16    3.91731E-14
  4058.44    6.43997E-15    4.83887E-16    3.46696E-14
  4061.19    4.47953E-15    4.59518E-16    3.21750E-14
  4063.94    4.80428E-15    4.60794E-16    3.23122E-14
  4066.69    4.52266E-15    4.72565E-16    3.46302E-14
  4069.44    5.30266E-15    4.89932E-16    3.76406E-14
  4072.19    6.09597E-15    4.96401E-16    3.85912E-14
  4074.94    6.91595E-15    4.94277E-16    3.71955E-14
  4077.69    7.83691E-15    4.92149E-16    3.61768E-14
  4080.44    8.61783E-15    4.93079E-16    3.57687E-14
  4083.19    8.32652E-15    4.88911E-16    3.55198E-14
  4085.94    8.61426E-15    4.86213E-16    3.47367E-14
  4088.69    9.41886E-15    4.81231E-16    3.32581E-14
  4091.44    8.52110E-15    4.68994E-16    3.20183E-14
  4094.19    8.41532E-15    4.58828E-16    3.03373E-14
  4096.94    8.67760E-15    4.52141E-16    2.89995E-14
  4099.69    9.27697E-15    4.47614E-16    2.78283E-14
  4102.44    8.80663E-15    4.38374E-16    2.67401E-14
  4105.19    9.30306E-15    4.32263E-16    2.54609E-14
  4107.94    9.28111E-15    4.25916E-16    2.43448E-14
  4110.69    9.78993E-15    4.24687E-16    2.39081E-14
  4113.44    1.06202E-14    4.27820E-16    2.38550E-14
  4116.19    9.42284E-15    4.22565E-16    2.43834E-14
  4118.94    9.11583E-15    4.18178E-16    2.39910E-14
  4121.69    9.62085E-15    4.21570E-16    2.43060E-14
  4124.44    1.00295E-14    4.23590E-16    2.46809E-14
  4127.19    9.71394E-15    4.32348E-16    2.60334E-14
  4129.94    9.22256E-15    4.35603E-16    2.78797E-14
  4132.69    9.00502E-15    4.33741E-16    2.84307E-14
  4135.44    9.20312E-15    4.38713E-16    2.88801E-14
  4138.19    8.87891E-15    4.41592E-16    2.88407E-14
  4140.94    9.31201E-15    4.38782E-16    2.87114E-14
  4143.69    9.45468E-15    4.32093E-16    2.78769E-14
  4146.44    9.16412E-15    4.19071E-16    2.65312E-14
  4149.19    9.38547E-15    4.12953E-16    2.53673E-14
  4151.94    9.52225E-15    4.09362E-16    2.47462E-14
  4154.69    9.17497E-15    4.06275E-16    2.47157E-14
  4157.44    8.83118E-15    4.11345E-16    2.62869E-14
  4160.19    8.90506E-15    4.23820E-16    2.88388E-14
  4162.94    8.82156E-15    4.34620E-16    3.12526E-14
  4165.69    8.77817E-15    4.41665E-16    3.30410E-14
  4168.44    8.73826E-15    4.49863E-16    3.49524E-14
  4171.19    9.29119E-15    4.61020E-16    3.68140E-14
  4173.94    9.06942E-15    4.61642E-16    3.75239E-14
  4176.69    8.94767E-15    4.56745E-16    3.66856E-14
  4179.44    9.42743E-15    4.49849E-16    3.49100E-14
  4182.19    8.60431E-15    4.37397E-16    3.32235E-14
  4184.94    9.46879E-15    4.29845E-16    3.09393E-14
  4187.69    8.68562E-15    4.17775E-16    2.93630E-14
  4190.44    8.15200E-15    4.06803E-16    2.78412E-14
  4193.19    8.39768E-15    4.00377E-16    2.65227E-14
  4195.94    8.17445E-15    3.99223E-16    2.59938E-14
  4198.69    7.77937E-15    3.94122E-16    2.51367E-14
  4201.44    7.40349E-15    3.82947E-16    2.39140E-14
  4204.19    8.23017E-15    3.77747E-16    2.29563E-14
  4206.94    7.48213E-15    3.71556E-16    2.27087E-14
  4209.69    8.02099E-15    3.74087E-16    2.29023E-14
  4212.44    8.84502E-15    3.78492E-16    2.31865E-14
  4215.19    8.49959E-15    3.76502E-16    2.33906E-14
  4217.94    8.89518E-15    3.73124E-16    2.26534E-14
  4220.69    9.01512E-15    3.70586E-16    2.21561E-14
  4223.44    8.84043E-15    3.66253E-16    2.18001E-14
  4226.19    9.17058E-15    3.63514E-16    2.12521E-14
  4228.94    9.02509E-15    3.60411E-16    2.08082E-14
  4231.69    9.11753E-15    3.57632E-16    2.04758E-14
  4234.44    9.23813E-15    3.55999E-16    2.02458E-14
  4237.19    9.47812E-15    3.56345E-16    2.03138E-14
  4239.94    9.47076E-15    3.55317E-16    2.03836E-14
  4242.69    9.82509E-15    3.54534E-16    2.01369E-14
  4245.44    9.37697E-15    3.50843E-16    2.00870E-14
  4248.19    9.09042E-15    3.54240E-16    2.11804E-14
  4250.94    9.52849E-15    3.63996E-16    2.28840E-14
  4253.69    9.61861E-15    3.70491E-16    2.42911E-14
  4256.44    9.55915E-15    3.71957E-16    2.47407E-14
  4259.19    9.58207E-15    3.69831E-16    2.45004E-14
  4261.94    9.51930E-15    3.66661E-16    2.40952E-14
  4264.69    9.79063E-15    3.64208E-16    2.35478E-14
  4267.44    9.76127E-15    3.60171E-16    2.29691E-14
  4270.19    9.42782E-15    3.58420E-16    2.30136E-14
  4272.94    9.11030E-15    3.56860E-16    2.31796E-14
  4275.69    9.11358E-15    3.55298E-16    2.29896E-14
  4278.44    9.13293E-15    3.54301E-16    2.28016E-14
  4281.19    9.02129E-15    3.52106E-16    2.26422E-14
  4283.94    9.32448E-15    3.52058E-16    2.25889E-14
  4286.69    9.50028E-15    3.51794E-16    2.23996E-14
  4289.44    9.41846E-15    3.49215E-16    2.20357E-14
  4292.19    9.47569E-15    3.46903E-16    2.17216E-14
  4294.94    9.53317E-15    3.46225E-16    2.16399E-14
  4297.69    9.49412E-15    3.47089E-16    2.19596E-14
  4300.44    9.34952E-15    3.46928E-16    2.21088E-14
  4303.19    9.33659E-15    3.45430E-16    2.19046E-14
  4305.94    9.29101E-15    3.41713E-16    2.12674E-14
  4308.69    9.83706E-15    3.42060E-16    2.09503E-14
  4311.44    9.68722E-15    3.46374E-16    2.20974E-14
  4314.19    9.20104E-15    3.50334E-16    2.36501E-14
  4316.94    1.00179E-14    3.59427E-16    2.50587E-14
  4319.69    1.09441E-14    3.67015E-16    2.59781E-14
  4322.44    1.02401E-14    3.64549E-16    2.62609E-14
  4325.19    9.31589E-15    3.57633E-16    2.57913E-14
  4327.94    9.52376E-15    3.50815E-16    2.42624E-14
  4330.69    9.45812E-15    3.43776E-16    2.28335E-14
  4333.44    9.70311E-15    3.41505E-16    2.23096E-14
  4336.19    9.61970E-15    3.39363E-16    2.21437E-14
  4338.94    9.96341E-15    3.38547E-16    2.17181E-14
  4341.69    9.96047E-15    3.36516E-16    2.14489E-14
  4344.44    9.80645E-15    3.33844E-16    2.11920E-14
  4347.19    1.00091E-14    3.36211E-16    2.15319E-14
  4349.94    9.89121E-15    3.39998E-16    2.24682E-14
  4352.69    1.01474E-14    3.45197E-16    2.34662E-14
  4355.44    9.93637E-15    3.50071E-16    2.48097E-14
  4358.19    1.05331E-14    3.68148E-16    2.83424E-14
  4360.94    9.99719E-15    3.95290E-16    3.56151E-14
  4363.69    1.00744E-14    4.16334E-16    4.11517E-14
  4366.44    9.73319E-15    4.08096E-16    3.93663E-14
  4369.19    9.99610E-15    3.79554E-16    3.21499E-14
  4371.94    9.68564E-15    3.52837E-16    2.61866E-14
  4374.69    9.83748E-15    3.41188E-16    2.36291E-14
  4377.44    9.83918E-15    3.38877E-16    2.32154E-14
  4380.19    9.92345E-15    3.41884E-16    2.38555E-14
  4382.94    9.85012E-15    3.42850E-16    2.44285E-14
  4385.69    9.36518E-15    3.37973E-16    2.39639E-14
  4388.44    9.46782E-15    3.32932E-16    2.28047E-14
  4391.19    9.42567E-15    3.30156E-16    2.22657E-14
  4393.94    9.34839E-15    3.28450E-16    2.19956E-14
  4396.69    9.59034E-15    3.28039E-16    2.18903E-14
  4399.44    8.90477E-15    3.27949E-16    2.25819E-14
  4402.19    8.55355E-15    3.28166E-16    2.31388E-14
  4404.94    8.77270E-15    3.36451E-16    2.47685E-14
  4407.69    8.44849E-15    3.45244E-16    2.71304E-14
  4410.44    8.38146E-15    3.56845E-16    2.99516E-14
  4413.19    9.21902E-15    3.66359E-16    3.14004E-14
  4415.94    9.32524E-15    3.68402E-16    3.18634E-14
  4418.69    9.38920E-15    3.68410E-16    3.18039E-14
  4421.44    9.65658E-15    3.70299E-16    3.20660E-14
  4424.19    1.00878E-14    3.69140E-16    3.14745E-14
  4426.94    9.30280E-15    3.64798E-16    3.11499E-14
  4429.69    9.35124E-15    3.61176E-16    3.03030E-14
  4432.44    9.53006E-15    3.56800E-16    2.90257E-14
  4435.19    9.68655E-15    3.52576E-16    2.80976E-14
  4437.94    9.61926E-15    3.47886E-16    2.71029E-14
  4440.69    8.39130E-15    3.41277E-16    2.67024E-14
  4443.44    8.63436E-15    3.39762E-16    2.62183E-14
  4446.19    8.77919E-15    3.39983E-16    2.61382E-14
  4448.94    8.50017E-15    3.37040E-16    2.57149E-14
  4451.69    9.12554E-15    3.35574E-16    2.49157E-14
  4454.44    9.47956E-15    3.34029E-16    2.42857E-14
  4457.19    9.85861E-15    3.30644E-16    2.32400E-14
  4459.94    1.06049E-14    3.28987E-16    2.21876E-14
  4462.69    1.05154E-14    3.26226E-16    2.16291E-14
  4465.44    1.05851E-14    3.26648E-16    2.17117E-14
  4468.19    1.09763E-14    3.27869E-16    2.15720E-14
  4470.94    1.09970E-14    3.26999E-16    2.14706E-14
  4473.69    1.05625E-14    3.25791E-16    2.17041E-14
  4476.44    1.03137E-14    3.22815E-16    2.13430E-14
  4479.19    1.03156E-14    3.22593E-16    2.14456E-14
  4481.94    1.01274E-14    3.22777E-16    2.16461E-14
  4484.69    1.02509E-14    3.22038E-16    2.13920E-14
  4487.44    9.64620E-15    3.22350E-16    2.20541E-14
  4490.19    1.00456E-14    3.24929E-16    2.22416E-14
  4492.94    9.68819E-15    3.24707E-16    2.26358E-14
  4495.69    1.04202E-14    3.26030E-16    2.23774E-14
  4498.44    1.10038E-14    3.29332E-16    2.26049E-14
  4501.19    1.06206E-14    3.29016E-16    2.31137E-14
  4503.94    1.02531E-14    3.27701E-16    2.31567E-14
  4506.69    1.06685E-14    3.26521E-16    2.25306E-14
  4509.44    1.00151E-14    3.24266E-16    2.27108E-14
  4512.19    1.05705E-14    3.25991E-16    2.27240E-14
  4514.94    1.07179E-14    3.25967E-16    2.26374E-14
  4517.69    1.10428E-14    3.26202E-16    2.24563E-14
  4520.44    1.04306E-14    3.23828E-16    2.25775E-14
  4523.19    1.11528E-14    3.25461E-16    2.23321E-14
  4525.94    1.10331E-14    3.27551E-16    2.30574E-14
  4528.69    1.07175E-14    3.31040E-16    2.40530E-14
  4531.44    1.08814E-14    3.35456E-16    2.51219E-14
  4534.19    1.07480E-14    3.38449E-16    2.60098E-14
  4536.94    1.05206E-14    3.42291E-16    2.71733E-14
  4539.69    1.10322E-14    3.45428E-16    2.76209E-14
  4542.44    1.07186E-14    3.43569E-16    2.75294E-14
  4545.19    1.07643E-14    3.43392E-16    2.76089E-14
  4547.94    1.10984E-14    3.44372E-16    2.76349E-14
  4550.69    1.13549E-14    3.45664E-16    2.77758E-14
  4553.44    1.03682E-14    3.40981E-16    2.77581E-14
  4556.19    1.10471E-14    3.39571E-16    2.67821E-14
  4558.94    1.14234E-14    3.35615E-16    2.54695E-14
  4561.69    1.11511E-14    3.29716E-16    2.47137E-14
  4564.44    1.04500E-14    3.23532E-16    2.38271E-14
  4567.19    1.02489E-14    3.21053E-16    2.36455E-14
  4569.94    1.04944E-14    3.17685E-16    2.27756E-14
  4572.69    1.10882E-14    3.18650E-16    2.25554E-14
  4575.44    1.06079E-14    3.16293E-16    2.25765E-14
  4578.19    1.17794E-14    3.21095E-16    2.24108E-14
  4580.94    1.15351E-14    3.23628E-16    2.33132E-14
  4583.69    1.13875E-14    3.24416E-16    2.40664E-14
  4586.44    1.12164E-14    3.26798E-16    2.46534E-14
  4589.19    1.20995E-14    3.28667E-16    2.44142E-14
  4591.94    1.13378E-14    3.24817E-16    2.43967E-14
  4594.69    1.12872E-14    3.21681E-16    2.36874E-14
  4597.44    1.18926E-14    3.20026E-16    2.27757E-14
  4600.19    1.20558E-14    3.17425E-16    2.20346E-14
  4602.94    1.21229E-14    3.15686E-16    2.16784E-14
  4605.69    1.13895E-14    3.13146E-16    2.17676E-14
  4608.44    1.17068E-14    3.13038E-16    2.15322E-14
  4611.19    1.21238E-14    3.14630E-16    2.17113E-14
  4613.94    1.18127E-14    3.14654E-16    2.20106E-14
  4616.69    1.23434E-14    3.15472E-16    2.18484E-14
  4619.44    1.20925E-14    3.12398E-16    2.14736E-14
  4622.19    1.15548E-14    3.11072E-16    2.15851E-14
  4624.94    1.25214E-14    3.13245E-16    2.11774E-14
  4627.69    1.18511E-14    3.09879E-16    2.13829E-14
  4630.44    1.13358E-14    3.08658E-16    2.15430E-14
  4633.19    1.12749E-14    3.06699E-16    2.12906E-14
  4635.94    1.09476E-14    3.04090E-16    2.10784E-14
  4638.69    1.06182E-14    3.02311E-16    2.09581E-14
  4641.44    1.11432E-14    3.02102E-16    2.05359E-14
  4644.19    1.16442E-14    3.03378E-16    2.04405E-14
  4646.94    1.10842E-14    3.00388E-16    2.04142E-14
  4649.69    1.18413E-14    3.03141E-16    2.03330E-14
  4652.44    1.16420E-14    3.01402E-16    2.01176E-14
  4655.19    1.12108E-14    3.00911E-16    2.05376E-14
  4657.94    1.09466E-14    3.03440E-16    2.14171E-14
  4660.69    1.15380E-14    3.10994E-16    2.27887E-14
  4663.44    1.18611E-14    3.18425E-16    2.44215E-14
  4666.19    1.15844E-14    3.23652E-16    2.59558E-14
  4668.94    1.16586E-14    3.24280E-16    2.59692E-14
  4671.69    1.14436E-14    3.23096E-16    2.59038E-14
  4674.44    1.23929E-14    3.26644E-16    2.58094E-14
  4677.19    1.17551E-14    3.24147E-16    2.61505E-14
  4679.94    1.23032E-14    3.26361E-16    2.61986E-14
  4682.69    1.25546E-14    3.24808E-16    2.56651E-14
  4685.44    1.26147E-14    3.22276E-16    2.50336E-14
  4688.19    1.16847E-14    3.18010E-16    2.48078E-14
  4690.94    1.20690E-14    3.16983E-16    2.44317E-14
  4693.69    1.17018E-14    3.13428E-16    2.37775E-14
  4696.44    1.16325E-14    3.12366E-16    2.33005E-14
  4699.19    1.20454E-14    3.12278E-16    2.28428E-14
  4701.94    1.16770E-14    3.07950E-16    2.25212E-14
  4704.69    1.17015E-14    3.04719E-16    2.20013E-14
  4707.44    1.20034E-14    3.06002E-16    2.21082E-14
  4710.19    1.18028E-14    3.06666E-16    2.24585E-14
  4712.94    1.18278E-14    3.08310E-16    2.28296E-14
  4715.69    1.19068E-14    3.09560E-16    2.31412E-14
  4718.44    1.23890E-14    3.10081E-16    2.29754E-14
  4721.19    1.25370E-14    3.10905E-16    2.26191E-14
  4723.94    1.28379E-14    3.15727E-16    2.22474E-14
  4726.69    1.29733E-14    3.08667E-16    2.21703E-14
  4729.44    1.26528E-14    3.05326E-16    2.18936E-14
  4732.19    1.29060E-14    3.06860E-16    2.18928E-14
  4734.94    1.26812E-14    3.05917E-16    2.19466E-14
  4737.69    1.24179E-14    3.04803E-16    2.19770E-14
  4740.44    1.27827E-14    3.06663E-16    2.21889E-14
  4743.19    1.23046E-14    3.06013E-16    2.25268E-14
  4745.94    1.23684E-14    3.06916E-16    2.27529E-14
  4748.69    1.22529E-14    3.06171E-16    2.26931E-14
  4751.44    1.19349E-14    3.02401E-16    2.21445E-14
  4754.19    1.22308E-14    3.00366E-16    2.13940E-14
  4756.94    1.20026E-14    2.97664E-16    2.10658E-14
  4759.69    1.21395E-14    2.96350E-16    2.07128E-14
  4762.44    1.22802E-14    2.95439E-16    2.03568E-14
  4765.19    1.24340E-14    2.94943E-16    1.99893E-14
  4767.94    1.26222E-14    2.94956E-16    1.97683E-14
  4770.69    1.21984E-14    2.93004E-16    1.98395E-14
  4773.44    1.22902E-14    2.92305E-16    1.96688E-14
  4776.19    1.23616E-14    2.92255E-16    1.96749E-14
  4778.94    1.22783E-14    2.92721E-16    1.99096E-14
  4781.69    1.14738E-14    2.90990E-16    2.03330E-14
  4784.44    1.14572E-14    2.92159E-16    2.06413E-14
  4787.19    1.18686E-14    2.93196E-16    2.05143E-14
  4789.94    1.23519E-14    2.96986E-16    2.04682E-14
  4792.69    1.25370E-14    2.98171E-16    2.04206E-14
  4795.44    1.24639E-14    2.97090E-16    2.07271E-14
  4798.19    1.24935E-14    2.96248E-16    2.08383E-14
  4800.94    1.21908E-14    2.94910E-16    2.09168E-14
  4803.69    1.23550E-14    2.95077E-16    2.08019E-14
  4806.44    1.20827E-14    2.94818E-16    2.10368E-14
  4809.19    1.19445E-14    2.95101E-16    2.12892E-14
  4811.94    1.20205E-14    2.95885E-16    2.14472E-14
  4814.69    1.18851E-14    2.95673E-16    2.14940E-14
  4817.44    1.21133E-14    2.99176E-16    2.22563E-14
  4820.19    1.19415E-14    3.04203E-16    2.37700E-14
  4822.94    1.20331E-14    3.09818E-16    2.52251E-14
  4825.69    1.22168E-14    3.15484E-16    2.64463E-14
  4828.44    1.27248E-14    3.19384E-16    2.69247E-14
  4831.19    1.26963E-14    3.19965E-16    2.70997E-14
  4833.94    1.28850E-14    3.20649E-16    2.71335E-14
  4836.69    1.27437E-14    3.20104E-16    2.73037E-14
  4839.44    1.26904E-14    3.22226E-16    2.75332E-14
  4842.19    1.25247E-14    3.20957E-16    2.76682E-14
  4844.94    1.23464E-14    3.18268E-16    2.73519E-14
  4847.69    1.20675E-14    3.14722E-16    2.66085E-14
  4850.44    1.20206E-14    3.10973E-16    2.58402E-14
  4853.19    1.23502E-14    3.07534E-16    2.48591E-14
  4855.94    1.27209E-14    3.05253E-16    2.39631E-14
  4858.69    1.29607E-14    3.02800E-16    2.30062E-14
  4861.44    1.31002E-14    2.99019E-16    2.18817E-14
  4864.19    1.29029E-14    2.95086E-16    2.12857E-14
  4866.94    1.26602E-14    2.94046E-16    2.12605E-14
  4869.69    1.25344E-14    2.94412E-16    2.12915E-14
  4872.44    1.28475E-14    2.99085E-16    2.14761E-14
  4875.19    1.25200E-14    2.93606E-16    2.15124E-14
  4877.94    1.28394E-14    2.94521E-16    2.14905E-14
  4880.69    1.23125E-14    2.93237E-16    2.17420E-14
  4883.44    1.26851E-14    2.97331E-16    2.25352E-14
  4886.19    1.25325E-14    3.00928E-16    2.35940E-14
  4888.94    1.28571E-14    3.04105E-16    2.41196E-14
  4891.69    1.28472E-14    3.02995E-16    2.40187E-14
  4894.44    1.26119E-14    3.01117E-16    2.38162E-14
  4897.19    1.25977E-14    2.99590E-16    2.34536E-14
  4899.94    1.22415E-14    2.96963E-16    2.31086E-14
  4902.69    1.23220E-14    2.95998E-16    2.28513E-14
  4905.44    1.24032E-14    2.94417E-16    2.24182E-14
  4908.19    1.27251E-14    2.94544E-16    2.22900E-14
  4910.94    1.28548E-14    2.94943E-16    2.22968E-14
  4913.69    1.29224E-14    2.94405E-16    2.21109E-14
  4916.44    1.29662E-14    2.93347E-16    2.18380E-14
  4919.19    1.26413E-14    2.91113E-16    2.16667E-14
  4921.94    1.28031E-14    2.90331E-16    2.12152E-14
  4924.69    1.30563E-14    2.90692E-16    2.10427E-14
  4927.44    1.26223E-14    2.88828E-16    2.10940E-14
  4930.19    1.30881E-14    2.90528E-16    2.12032E-14
  4932.94    1.26607E-14    2.89342E-16    2.14018E-14
  4935.69    1.26214E-14    2.88718E-16    2.12921E-14
  4938.44    1.24245E-14    2.88305E-16    2.13148E-14
  4941.19    1.23323E-14    2.89661E-16    2.17691E-14
  4943.94    1.22301E-14    2.89591E-16    2.19224E-14
  4946.69    1.22841E-14    2.88635E-16    2.16432E-14
  4949.44    1.18555E-14    2.86318E-16    2.14296E-14
  4952.19    1.23368E-14    2.88086E-16    2.14175E-14
  4954.94    1.22954E-14    2.89170E-16    2.17672E-14
  4957.69    1.17789E-14    2.88591E-16    2.20926E-14
  4960.44    1.19783E-14    2.88871E-16    2.19193E-14
  4963.19    1.16416E-14    2.86758E-16    2.16839E-14
  4965.94    1.13565E-14    2.86522E-16    2.18285E-14
  4968.69    1.15064E-14    2.89649E-16    2.24800E-14
  4971.44    1.18446E-14    2.94660E-16    2.34664E-14
  4974.19    1.22393E-14    2.99325E-16    2.42714E-14
  4976.94    1.21397E-14    3.04081E-16    2.53621E-14
  4979.69    1.19560E-14    3.07583E-16    2.65285E-14
  4982.44    1.14627E-14    3.08298E-16    2.73064E-14
  4985.19    1.09023E-14    3.09983E-16    2.81885E-14
  4987.94    9.96071E-15    3.08814E-16    2.86481E-14
  4990.69    1.07414E-14    3.10686E-16    2.83436E-14
  4993.44    1.13875E-14    3.10964E-16    2.77420E-14
  4996.19    1.16322E-14    3.08356E-16    2.68740E-14
  4998.94    1.15513E-14    3.03777E-16    2.58300E-14
  5001.69    1.09991E-14    2.97781E-16    2.48583E-14
  5004.44    1.16178E-14    2.96270E-16    2.38777E-14
  5007.19    1.16445E-14    2.93699E-16    2.31644E-14
  5009.94    1.19783E-14    2.93284E-16    2.28069E-14
  5012.69    1.23431E-14    2.93288E-16    2.25479E-14
  5015.44    1.25031E-14    2.92918E-16    2.22267E-14
  5018.19    1.24573E-14    2.91581E-16    2.18966E-14
  5020.94    1.26127E-14    2.91235E-16    2.16633E-14
  5023.69    1.24194E-14    2.89257E-16    2.13881E-14
  5026.44    1.28153E-14    2.90063E-16    2.11853E-14
  5029.19    1.25049E-14    2.88262E-16    2.10235E-14
  5031.94    1.22247E-14    2.85893E-16    2.08390E-14
  5034.69    1.19566E-14    2.84854E-16    2.09508E-14
  5037.44    1.18722E-14    2.84073E-16    2.07417E-14
  5040.19    1.19547E-14    2.83279E-16    2.04139E-14
  5042.94    1.23137E-14    2.82463E-16    1.99384E-14
  5045.69    1.23776E-14    2.81485E-16    1.96817E-14
  5048.44    1.21111E-14    2.81177E-16    1.98455E-14
  5051.19    1.26230E-14    2.82470E-16    1.98412E-14
  5053.94    1.24106E-14    2.82143E-16    1.99577E-14
  5056.69    1.24707E-14    2.81606E-16    1.97769E-14
  5059.44    1.28189E-14    2.82724E-16    1.97581E-14
  5062.19    1.26086E-14    2.82993E-16    2.00206E-14
  5064.94    1.27876E-14    2.84330E-16    2.02054E-14
  5067.69    1.28999E-14    2.87675E-16    2.03839E-14
  5070.44    1.28113E-14    2.88002E-16    2.06980E-14
  5073.19    1.33517E-14    2.89844E-16    2.09764E-14
  5075.94    1.34838E-14    2.90073E-16    2.08820E-14
  5078.69    1.34790E-14    2.89098E-16    2.07608E-14
  5081.44    1.32475E-14    2.87544E-16    2.06886E-14
  5084.19    1.30431E-14    2.88616E-16    2.11915E-14
  5086.94    1.27377E-14    2.92687E-16    2.24744E-14
  5089.69    1.25784E-14    2.96094E-16    2.35043E-14
  5092.44    1.23440E-14    2.95113E-16    2.34892E-14
  5095.19    1.25497E-14    2.92170E-16    2.24755E-14
  5097.94    1.25023E-14    2.86948E-16    2.13699E-14
  5100.69    1.20102E-14    2.83768E-16    2.10410E-14
  5103.44    1.19688E-14    2.83475E-16    2.09913E-14
  5106.19    1.27111E-14    2.85341E-16    2.08896E-14
  5108.94    1.25524E-14    2.83529E-16    2.05433E-14
  5111.69    1.27650E-14    2.82224E-16    2.00005E-14
  5114.44    1.27383E-14    2.81638E-16    1.99118E-14
  5117.19    1.29199E-14    2.84129E-16    1.99063E-14
  5119.94    1.33462E-14    2.89486E-16    2.01635E-14
  5122.69    1.38585E-14    2.86741E-16    2.03210E-14
  5125.44    1.46071E-14    2.88897E-16    2.01816E-14
  5128.19    1.47621E-14    2.87977E-16    1.98008E-14
  5130.94    1.36494E-14    2.83041E-16    1.96257E-14
  5133.69    1.27564E-14    2.81922E-16    2.01314E-14
  5136.44    1.22437E-14    2.83905E-16    2.11817E-14
  5139.19    1.21006E-14    2.87977E-16    2.22683E-14
  5141.94    1.21269E-14    2.90550E-16    2.28941E-14
  5144.69    1.26631E-14    2.92516E-16    2.30940E-14
  5147.44    1.26612E-14    2.93260E-16    2.33304E-14
  5150.19    1.27555E-14    2.94549E-16    2.35685E-14
  5152.94    1.28189E-14    2.96270E-16    2.39411E-14
  5155.69    1.24342E-14    2.96772E-16    2.44327E-14
  5158.44    1.23083E-14    2.97103E-16    2.47114E-14
  5161.19    1.18786E-14    2.95197E-16    2.46202E-14
  5163.94    1.18728E-14    2.92560E-16    2.38719E-14
  5166.69    1.24361E-14    2.91168E-16    2.29326E-14
  5169.44    1.24646E-14    2.87767E-16    2.20572E-14
  5172.19    1.25650E-14    2.83993E-16    2.10429E-14
  5174.94    1.27775E-14    2.82078E-16    2.04950E-14
  5177.69    1.27787E-14    2.80934E-16    2.03080E-14
  5180.44    1.28664E-14    2.80927E-16    2.03174E-14
  5183.19    1.31437E-14    2.82130E-16    2.03688E-14
  5185.94    1.28295E-14    2.80891E-16    2.03278E-14
  5188.69    1.24171E-14    2.79910E-16    2.04829E-14
  5191.44    1.26178E-14    2.83350E-16    2.11606E-14
  5194.19    1.20943E-14    2.86222E-16    2.23195E-14
  5196.94    1.24143E-14    2.90186E-16    2.30794E-14
  5199.69    1.26434E-14    2.97099E-16    2.48312E-14
  5202.44    1.21861E-14    3.06110E-16    2.77641E-14
  5205.19    1.24055E-14    3.11740E-16    2.91831E-14
  5207.94    1.24905E-14    3.07298E-16    2.78367E-14
  5210.69    1.25987E-14    2.96805E-16    2.49451E-14
  5213.44    1.26484E-14    2.88847E-16    2.28295E-14
  5216.19    1.26644E-14    2.86335E-16    2.20576E-14
  5218.94    1.27391E-14    2.85386E-16    2.17498E-14
  5221.69    1.25310E-14    2.85749E-16    2.21271E-14
  5224.44    1.25802E-14    2.89455E-16    2.30182E-14
  5227.19    1.27339E-14    2.92586E-16    2.36191E-14
  5229.94    1.25619E-14    2.91884E-16    2.36517E-14
  5232.69    1.24869E-14    2.89767E-16    2.31736E-14
  5235.44    1.26762E-14    2.88313E-16    2.25906E-14
  5238.19    1.30883E-14    2.89179E-16    2.24761E-14
  5240.94    1.29908E-14    2.90984E-16    2.30638E-14
  5243.69    1.24848E-14    2.92402E-16    2.37076E-14
  5246.44    1.21833E-14    2.91588E-16    2.35935E-14
  5249.19    1.20803E-14    2.87236E-16    2.27419E-14
  5251.94    1.20740E-14    2.84098E-16    2.20665E-14
  5254.69    1.21357E-14    2.84747E-16    2.22659E-14
  5257.44    1.23277E-14    2.88552E-16    2.31403E-14
  5260.19    1.25323E-14    2.93095E-16    2.40606E-14
  5262.94    1.25199E-14    2.92756E-16    2.39987E-14
  5265.69    1.23486E-14    2.87537E-16    2.27667E-14
  5268.44    1.18657E-14    2.80182E-16    2.12919E-14
  5271.19    1.18525E-14    2.76571E-16    2.04287E-14
  5273.94    1.20888E-14    2.77346E-16    2.04205E-14
  5276.69    1.22853E-14    2.81274E-16    2.12047E-14
  5279.44    1.28388E-14    2.87397E-16    2.21706E-14
  5282.19    1.24280E-14    2.88549E-16    2.27928E-14
  5284.94    1.19805E-14    2.84676E-16    2.23053E-14
  5287.69    1.15009E-14    2.79598E-16    2.15718E-14
  5290.44    1.08039E-14    2.76367E-16    2.14270E-14
  5293.19    1.06710E-14    2.76503E-16    2.16000E-14
  5295.94    1.06964E-14    2.78596E-16    2.19863E-14
  5298.69    1.08797E-14    2.81712E-16    2.25140E-14
  5301.44    1.16560E-14    2.85750E-16    2.29869E-14
  5304.19    1.15665E-14    2.87358E-16    2.35473E-14
  5306.94    1.14083E-14    2.88480E-16    2.38876E-14
  5309.69    1.16135E-14    2.89006E-16    2.37498E-14
  5312.44    1.18575E-14    2.90116E-16    2.37126E-14
  5315.19    1.19823E-14    2.91385E-16    2.40530E-14
  5317.94    1.24150E-14    2.94593E-16    2.43957E-14
  5320.69    1.27689E-14    2.96105E-16    2.44843E-14
  5323.44    1.26511E-14    2.95233E-16    2.45814E-14
  5326.19    1.24666E-14    2.96022E-16    2.49359E-14
  5328.94    1.23960E-14    2.96525E-16    2.50033E-14
  5331.69    1.27261E-14    2.97465E-16    2.49844E-14
  5334.44    1.22248E-14    2.97385E-16    2.54516E-14
  5337.19    1.23318E-14    2.98056E-16    2.54936E-14
  5339.94    1.28134E-14    2.98108E-16    2.51262E-14
  5342.69    1.26533E-14    2.95905E-16    2.48405E-14
  5345.44    1.24964E-14    2.94866E-16    2.48131E-14
  5348.19    1.24521E-14    2.95037E-16    2.48347E-14
  5350.94    1.19680E-14    2.94226E-16    2.49638E-14
  5353.69    1.19576E-14    2.95227E-16    2.52148E-14
  5356.44    1.23581E-14    2.97207E-16    2.53173E-14
  5359.19    1.28884E-14    2.97844E-16    2.51024E-14
  5361.94    1.32229E-14    2.97134E-16    2.46607E-14
  5364.69    1.30772E-14    2.95238E-16    2.42503E-14
  5367.44    1.33586E-14    2.93715E-16    2.35743E-14
  5370.19    1.35136E-14    2.93080E-16    2.32497E-14
  5372.94    1.31518E-14    2.93144E-16    2.36260E-14
  5375.69    1.29699E-14    2.93899E-16    2.40204E-14
  5378.44    1.32733E-14    2.95601E-16    2.41708E-14
  5381.19    1.31555E-14    2.95789E-16    2.43995E-14
  5383.94    1.29227E-14    2.95117E-16    2.44153E-14
  5386.69    1.27636E-14    2.92632E-16    2.39392E-14
  5389.44    1.22648E-14    2.89679E-16    2.36926E-14
  5392.19    1.17712E-14    2.88438E-16    2.38169E-14
  5394.94    1.17516E-14    2.89173E-16    2.39525E-14
  5397.69    1.19798E-14    2.89834E-16    2.38821E-14
  5400.44    1.24453E-14    2.90455E-16    2.36649E-14
  5403.19    1.26236E-14    2.90907E-16    2.35301E-14
  5405.94    1.31841E-14    2.91938E-16    2.32726E-14
  5408.69    1.35282E-14    2.91888E-16    2.30766E-14
  5411.44    1.38882E-14    2.92636E-16    2.30323E-14
  5414.19    1.39974E-14    2.93582E-16    2.31958E-14
  5416.94    1.38426E-14    2.95240E-16    2.36746E-14
  5419.69    1.39337E-14    2.96325E-16    2.39005E-14
  5422.44    1.35029E-14    2.95985E-16    2.41072E-14
  5425.19    1.30347E-14    2.94709E-16    2.42992E-14
  5427.94    1.31793E-14    2.94622E-16    2.43225E-14
  5430.69    1.35062E-14    2.96266E-16    2.43911E-14
  5433.44    1.37118E-14    2.97396E-16    2.44810E-14
  5436.19    1.35532E-14    2.97100E-16    2.46105E-14
  5438.94    1.36197E-14    2.98091E-16    2.48757E-14
  5441.69    1.36513E-14    2.99146E-16    2.51553E-14
  5444.44    1.36186E-14    2.99955E-16    2.53806E-14
  5447.19    1.35637E-14    3.00520E-16    2.56330E-14
  5449.94    1.33183E-14    3.00122E-16    2.57923E-14
  5452.69    1.30169E-14    3.00071E-16    2.60255E-14
  5455.44    1.29327E-14    3.00511E-16    2.62986E-14
  5458.19    1.27797E-14    3.04299E-16    2.74437E-14
  5460.94    1.36825E-14    3.21322E-16    3.13459E-14
  5463.69    1.38675E-14    3.45089E-16    3.83736E-14
  5466.44    1.34233E-14    3.59860E-16    4.35970E-14
  5469.19    1.33048E-14    3.53233E-16    4.16845E-14
  5471.94    1.32326E-14    3.32368E-16    3.50740E-14
  5474.69    1.34850E-14    3.16158E-16    2.99544E-14
  5477.44    1.36047E-14    3.10024E-16    2.81703E-14
  5480.19    1.39615E-14    3.08914E-16    2.75333E-14
  5482.94    1.39149E-14    3.08989E-16    2.75985E-14
  5485.69    1.38570E-14    3.12242E-16    2.81767E-14
  5488.44    1.45743E-14    3.15270E-16    2.82805E-14
  5491.19    1.42262E-14    3.12271E-16    2.82515E-14
  5493.94    1.31540E-14    3.08620E-16    2.82238E-14
  5496.69    1.33085E-14    3.07651E-16    2.77883E-14
  5499.44    1.36009E-14    3.09125E-16    2.78974E-14
  5502.19    1.35226E-14    3.11318E-16    2.85927E-14
  5504.94    1.33171E-14    3.12628E-16    2.91022E-14
  5507.69    1.36343E-14    3.13661E-16    2.91778E-14
  5510.44    1.35790E-14    3.13485E-16    2.92434E-14
  5513.19    1.38368E-14    3.14480E-16    2.92926E-14
  5515.94    1.37297E-14    3.15245E-16    2.95299E-14
  5518.69    1.33908E-14    3.15952E-16    3.00369E-14
  5521.44    1.31614E-14    3.15839E-16    3.02859E-14
  5524.19    1.28718E-14    3.15762E-16    3.04786E-14
  5526.94    1.27942E-14    3.14973E-16    3.02838E-14
  5529.69    1.25270E-14    3.13280E-16    3.01442E-14
  5532.44    1.26820E-14    3.11998E-16    2.96957E-14
  5535.19    1.31779E-14    3.12684E-16    2.92905E-14
  5537.94    1.32357E-14    3.13070E-16    2.93484E-14
  5540.69    1.30824E-14    3.14264E-16    2.98311E-14
  5543.44    1.34665E-14    3.19577E-16    3.09734E-14
  5546.19    1.35860E-14    3.26572E-16    3.29601E-14
  5548.94    1.33880E-14    3.30914E-16    3.44602E-14
  5551.69    1.32425E-14    3.30800E-16    3.44851E-14
  5554.44    1.33541E-14    3.27170E-16    3.35878E-14
  5557.19    1.32382E-14    3.23878E-16    3.25548E-14
  5559.94    1.33429E-14    3.22713E-16    3.20596E-14
  5562.69    1.36761E-14    3.24085E-16    3.24685E-14
  5565.44    1.31570E-14    3.30781E-16    3.41386E-14
  5568.19    1.34615E-14    3.41971E-16    3.77944E-14
  5570.94    1.37345E-14    3.67226E-16    4.59743E-14
  5573.69    1.35694E-14    4.51150E-16    7.70003E-14
  5576.44    1.37851E-14    7.03124E-16    2.04656E-13
  5579.19    1.30632E-14    1.13580E-15    5.26717E-13
  5581.94    1.30716E-14    1.45997E-15    8.87905E-13
  5584.69    1.30766E-14    1.41420E-15    8.78234E-13
  5587.44    1.39472E-14    1.08633E-15    5.12522E-13
  5590.19    1.32239E-14    7.04788E-16    2.06681E-13
  5592.94    1.34072E-14    4.41633E-16    7.37800E-14
  5595.69    1.35398E-14    3.59824E-16    4.42012E-14
  5598.44    1.31911E-14    3.37168E-16    3.63604E-14
  5601.19    1.35891E-14    3.29674E-16    3.43475E-14
  5603.94    1.31072E-14    3.29343E-16    3.41328E-14
  5606.69    1.35113E-14    3.30288E-16    3.44238E-14
  5609.44    1.35690E-14    3.33152E-16    3.52284E-14
  5612.19    1.36817E-14    3.33577E-16    3.53630E-14
  5614.94    1.37885E-14    3.29761E-16    3.42944E-14
  5617.69    1.33629E-14    3.25235E-16    3.32505E-14
  5620.44    1.33991E-14    3.24100E-16    3.29049E-14
  5623.19    1.39034E-14    3.27523E-16    3.33528E-14
  5625.94    1.34267E-14    3.28053E-16    3.41918E-14
  5628.69    1.35416E-14    3.31835E-16    3.51640E-14
  5631.44    1.33129E-14    3.30838E-16    3.50422E-14
  5634.19    1.27997E-14    3.24973E-16    3.38111E-14
  5636.94    1.34438E-14    3.23923E-16    3.26954E-14
  5639.69    1.34574E-14    3.23367E-16    3.25804E-14
  5642.44    1.34501E-14    3.24688E-16    3.28805E-14
  5645.19    1.39429E-14    3.27655E-16    3.34918E-14
  5647.94    1.40527E-14    3.30991E-16    3.44553E-14
  5650.69    1.44266E-14    3.34069E-16    3.51174E-14
  5653.44    1.38641E-14    3.32413E-16    3.50119E-14
  5656.19    1.37495E-14    3.30628E-16    3.45373E-14
  5658.94    1.36214E-14    3.29999E-16    3.42500E-14
  5661.69    1.37655E-14    3.31204E-16    3.44554E-14
  5664.44    1.37624E-14    3.32524E-16    3.49240E-14
  5667.19    1.40103E-14    3.35782E-16    3.56402E-14
  5669.94    1.37302E-14    3.38797E-16    3.69245E-14
  5672.69    1.36163E-14    3.43566E-16    3.85518E-14
  5675.44    1.42026E-14    3.50286E-16    4.00874E-14
  5678.19    1.35190E-14    3.52712E-16    4.15336E-14
  5680.94    1.42834E-14    3.56406E-16    4.18663E-14
  5683.69    1.40375E-14    3.59960E-16    4.31258E-14
  5686.44    1.40506E-14    3.69693E-16    4.63425E-14
  5689.19    1.41833E-14    3.83286E-16    5.08690E-14
  5691.94    1.37197E-14    3.93350E-16    5.45797E-14
  5694.69    1.38306E-14    3.97354E-16    5.58277E-14
  5697.44    1.36168E-14    3.92821E-16    5.40827E-14
  5700.19    1.35467E-14    3.81821E-16    5.06351E-14
  5702.94    1.37355E-14    3.71911E-16    4.70453E-14
  5705.69    1.36181E-14    3.65311E-16    4.46790E-14
  5708.44    1.34474E-14    3.59428E-16    4.31059E-14
  5711.19    1.45484E-14    3.58779E-16    4.15769E-14
  5713.94    1.39260E-14    3.55939E-16    4.12670E-14
  5716.69    1.37962E-14    3.55016E-16    4.12349E-14
  5719.44    1.32270E-14    3.54033E-16    4.12672E-14
  5722.19    1.31320E-14    3.53015E-16    4.09560E-14
  5724.94    1.31533E-14    3.52491E-16    4.07662E-14
  5727.69    1.35874E-14    3.52417E-16    4.05928E-14
  5730.44    1.35337E-14    3.51872E-16    4.03448E-14
  5733.19    1.33216E-14    3.49964E-16    3.96771E-14
  5735.94    1.41708E-14    3.50806E-16    3.91266E-14
  5738.69    1.41978E-14    3.48184E-16    3.84815E-14
  5741.44    1.40854E-14    3.47467E-16    3.84443E-14
  5744.19    1.40869E-14    3.46010E-16    3.78813E-14
  5746.94    1.40355E-14    3.46564E-16    3.79257E-14
  5749.69    1.39730E-14    3.45935E-16    3.80248E-14
  5752.44    1.34063E-14    3.44247E-16    3.78764E-14
  5755.19    1.36933E-14    3.45520E-16    3.78597E-14
  5757.94    1.38027E-14    3.45329E-16    3.77124E-14
  5760.69    1.36948E-14    3.50322E-16    3.81148E-14
  5763.44    1.37694E-14    3.48255E-16    3.84256E-14
  5766.19    1.39253E-14    3.48237E-16    3.87392E-14
  5768.94    1.42578E-14    3.53114E-16    3.99774E-14
  5771.69    1.29454E-14    3.57836E-16    4.28800E-14
  5774.44    1.35681E-14    3.64652E-16    4.42933E-14
  5777.19    1.41227E-14    3.63869E-16    4.36597E-14
  5779.94    1.43504E-14    3.67311E-16    4.13534E-14
  5782.69    1.35855E-14    3.50255E-16    3.96607E-14
  5785.44    1.29408E-14    3.47184E-16    3.93177E-14
  5788.19    1.33602E-14    3.46979E-16    3.89732E-14
  5790.94    1.36377E-14    3.52950E-16    4.05141E-14
  5793.69    1.41089E-14    3.60219E-16    4.25709E-14
  5796.44    1.39841E-14    3.66090E-16    4.44189E-14
  5799.19    1.32298E-14    3.61762E-16    4.39386E-14
  5801.94    1.34500E-14    3.54836E-16    4.18083E-14
  5804.69    1.37347E-14    3.52607E-16    4.08500E-14
  5807.44    1.40318E-14    3.52973E-16    4.07707E-14
  5810.19    1.42459E-14    3.54874E-16    4.13668E-14
  5812.94    1.35171E-14    3.54145E-16    4.14767E-14
  5815.69    1.40774E-14    3.55938E-16    4.14432E-14
  5818.44    1.34787E-14    3.59726E-16    4.17892E-14
  5821.19    1.41326E-14    3.61548E-16    4.22458E-14
  5823.94    1.40594E-14    3.62105E-16    4.26492E-14
  5826.69    1.37147E-14    3.59840E-16    4.34232E-14
  5829.44    1.50378E-14    3.61969E-16    4.29624E-14
  5832.19    1.41084E-14    3.59214E-16    4.30670E-14
  5834.94    1.42088E-14    3.60426E-16    4.32735E-14
  5837.69    1.37711E-14    3.61041E-16    4.37865E-14
  5840.44    1.34640E-14    3.59826E-16    4.37612E-14
  5843.19    1.39572E-14    3.60631E-16    4.38544E-14
  5845.94    1.34044E-14    3.60271E-16    4.40951E-14
  5848.69    1.37079E-14    3.62502E-16    4.45249E-14
  5851.44    1.37278E-14    3.62667E-16    4.46706E-14
  5854.19    1.41926E-14    3.64414E-16    4.48166E-14
  5856.94    1.43247E-14    3.66748E-16    4.53361E-14
  5859.69    1.45452E-14    3.68175E-16    4.54951E-14
  5862.44    1.43609E-14    3.67102E-16    4.57281E-14
  5865.19    1.46662E-14    3.72546E-16    4.75266E-14
  5867.94    1.42490E-14    3.88807E-16    5.23449E-14
  5870.69    1.39992E-14    4.07296E-16    5.96001E-14
  5873.44    1.47642E-14    4.19050E-16    6.32853E-14
  5876.19    1.43661E-14    4.09284E-16    6.04847E-14
  5878.94    1.42029E-14    3.92403E-16    5.53816E-14
  5881.69    1.41341E-14    3.85134E-16    5.23336E-14
  5884.44    1.40357E-14    3.90733E-16    5.39521E-14
  5887.19    1.41110E-14    4.37328E-16    7.02952E-14
  5889.94    1.44852E-14    5.89574E-16    1.37526E-13
  5892.69    1.41068E-14    8.45826E-16    2.83893E-13
  5895.44    1.40076E-14    9.91434E-16    4.19408E-13
  5898.19    1.44960E-14    1.01386E-15    4.48968E-13
  5900.94    1.45074E-14    9.18115E-16    3.75747E-13
  5903.69    1.44034E-14    7.79396E-16    2.68894E-13
  5906.44    1.43140E-14    6.05855E-16    1.57456E-13
  5909.19    1.42902E-14    4.67025E-16    8.65623E-14
  5911.94    1.44606E-14    4.13868E-16    6.32697E-14
  5914.69    1.40771E-14    4.01675E-16    5.76326E-14
  5917.44    1.36402E-14    4.04009E-16    5.93623E-14
  5920.19    1.35572E-14    4.12212E-16    6.22953E-14
  5922.94    1.24687E-14    4.11667E-16    6.26659E-14
  5925.69    1.39586E-14    4.11307E-16    5.95818E-14
  5928.44    1.41375E-14    4.18312E-16    5.88856E-14
  5931.19    1.37544E-14    4.17914E-16    5.98321E-14
  5933.94    1.38530E-14    4.17219E-16    6.20936E-14
  5936.69    1.44442E-14    4.25011E-16    6.57658E-14
  5939.44    1.42465E-14    4.26118E-16    6.66552E-14
  5942.19    1.45746E-14    4.15230E-16    6.22721E-14
  5944.94    1.42531E-14    3.99721E-16    5.69318E-14
  5947.69    1.47039E-14    3.95778E-16    5.51084E-14
  5950.44    1.44636E-14    3.99436E-16    5.65255E-14
  5953.19    1.41987E-14    4.04597E-16    5.89265E-14
  5955.94    1.42600E-14    4.12471E-16    6.19688E-14
  5958.69    1.44080E-14    4.18599E-16    6.39378E-14
  5961.44    1.37294E-14    4.13194E-16    6.23311E-14
  5964.19    1.42077E-14    4.02034E-16    5.76167E-14
  5966.94    1.42441E-14    3.92641E-16    5.41585E-14
  5969.69    1.48732E-14    3.91716E-16    5.33608E-14
  5972.44    1.48309E-14    3.94185E-16    5.43573E-14
  5975.19    1.46931E-14    3.97843E-16    5.59470E-14
  5977.94    1.47418E-14    4.01176E-16    5.73107E-14
  5980.69    1.44156E-14    4.04425E-16    5.86347E-14
  5983.44    1.40482E-14    4.03496E-16    5.86112E-14
  5986.19    1.35234E-14    3.95705E-16    5.64429E-14
  5988.94    1.33102E-14    3.86412E-16    5.32850E-14
  5991.69    1.37158E-14    3.80310E-16    5.08996E-14
  5994.44    1.42051E-14    3.78817E-16    5.00112E-14
  5997.19    1.41664E-14    3.78494E-16    4.95645E-14
  5999.94    1.41210E-14    3.79396E-16    4.98039E-14
  6002.69    1.36852E-14    3.81067E-16    5.07311E-14
  6005.44    1.40740E-14    3.83159E-16    5.11150E-14
  6008.19    1.45434E-14    3.84219E-16    5.10893E-14
  6010.94    1.45217E-14    3.81703E-16    5.01695E-14
  6013.69    1.41569E-14    3.74674E-16    4.81105E-14
  6016.44    1.41746E-14    3.68049E-16    4.57574E-14
  6019.19    1.35767E-14    3.64095E-16    4.47852E-14
  6021.94    1.27455E-14    3.59398E-16    4.40885E-14
  6024.69    1.11756E-14    3.52163E-16    4.32885E-14
  6027.44    9.70966E-15    3.46842E-16    4.28954E-14
  6030.19    8.38638E-15    3.43745E-16    4.30646E-14
  6032.94    7.78537E-15    3.43699E-16    4.35812E-14
  6035.69    8.38879E-15    3.46904E-16    4.39184E-14
  6038.44    1.02830E-14    3.52417E-16    4.38144E-14
  6041.19    1.19346E-14    3.55975E-16    4.32368E-14
  6043.94    1.32141E-14    3.55698E-16    4.19574E-14
  6046.69    1.34227E-14    3.52796E-16    4.08137E-14
  6049.44    1.37433E-14    3.51403E-16    3.99312E-14
  6052.19    1.37957E-14    3.49929E-16    3.93733E-14
  6054.94    1.36846E-14    3.49550E-16    3.91779E-14
  6057.69    1.43278E-14    3.49012E-16    3.86018E-14
  6060.44    1.43264E-14    3.47803E-16    3.85593E-14
  6063.19    1.42670E-14    3.47860E-16    3.84709E-14
  6065.94    1.39889E-14    3.47866E-16    3.86075E-14
  6068.69    1.40386E-14    3.48503E-16    3.87886E-14
  6071.44    1.37565E-14    3.47607E-16    3.86770E-14
  6074.19    1.41058E-14    3.47987E-16    3.82939E-14
  6076.94    1.40079E-14    3.44135E-16    3.73946E-14
  6079.69    1.41206E-14    3.43085E-16    3.67743E-14
  6082.44    1.40094E-14    3.41804E-16    3.65153E-14
  6085.19    1.41789E-14    3.42198E-16    3.60522E-14
  6087.94    1.39630E-14    3.39687E-16    3.57998E-14
  6090.69    1.44798E-14    3.39770E-16    3.53393E-14
  6093.44    1.43988E-14    3.40437E-16    3.56336E-14
  6096.19    1.41487E-14    3.41843E-16    3.61073E-14
  6098.94    1.43056E-14    3.44034E-16    3.65310E-14
  6101.69    1.37327E-14    3.45577E-16    3.76168E-14
  6104.44    1.40981E-14    3.47518E-16    3.78943E-14
  6107.19    1.45192E-14    3.48215E-16    3.76985E-14
  6109.94    1.43974E-14    3.47317E-16    3.75421E-14
  6112.69    1.43562E-14    3.46789E-16    3.72730E-14
  6115.44    1.42042E-14    3.44666E-16    3.69303E-14
  6118.19    1.41869E-14    3.44428E-16    3.64424E-14
  6120.94    1.41039E-14    3.41508E-16    3.55873E-14
  6123.69    1.38300E-14    3.38296E-16    3.48778E-14
  6126.44    1.43618E-14    3.37194E-16    3.40404E-14
  6129.19    1.46441E-14    3.36470E-16    3.35232E-14
  6131.94    1.40458E-14    3.35318E-16    3.36799E-14
  6134.69    1.46084E-14    3.34867E-16    3.30814E-14
  6137.44    1.45929E-14    3.35867E-16    3.32889E-14
  6140.19    1.41543E-14    3.38577E-16    3.46954E-14
  6142.94    1.40250E-14    3.46184E-16    3.67931E-14
  6145.69    1.41137E-14    3.50059E-16    3.80242E-14
  6148.44    1.35278E-14    3.50227E-16    3.85617E-14
  6151.19    1.38980E-14    3.50792E-16    3.77798E-14
  6153.94    1.42290E-14    3.51694E-16    3.54400E-14
  6156.69    1.45092E-14    3.45522E-16    3.49169E-14
  6159.44    1.35468E-14    3.43816E-16    3.59666E-14
  6162.19    1.35845E-14    3.43768E-16    3.61176E-14
  6164.94    1.35177E-14    3.44501E-16    3.64189E-14
  6167.69    1.41216E-14    3.46020E-16    3.63745E-14
  6170.44    1.37103E-14    3.43268E-16    3.58042E-14
  6173.19    1.41721E-14    3.47551E-16    3.67226E-14
  6175.94    1.48796E-14    3.52751E-16    3.76224E-14
  6178.69    1.45627E-14    3.52538E-16    3.75013E-14
  6181.44    1.34714E-14    3.44711E-16    3.62645E-14
  6184.19    1.47268E-14    3.42239E-16    3.41258E-14
  6186.94    1.43293E-14    3.36522E-16    3.30881E-14
  6189.69    1.43746E-14    3.36257E-16    3.27860E-14
  6192.44    1.45603E-14    3.37992E-16    3.31346E-14
  6195.19    1.44553E-14    3.38721E-16    3.32507E-14
  6197.94    1.43305E-14    3.38871E-16    3.31916E-14
  6200.69    1.43684E-14    3.40494E-16    3.33056E-14
  6203.44    1.45839E-14    3.41986E-16    3.37570E-14
  6206.19    1.43607E-14    3.44647E-16    3.47298E-14
  6208.94    1.37722E-14    3.47194E-16    3.59242E-14
  6211.69    1.46545E-14    3.47774E-16    3.51445E-14
  6214.44    1.44552E-14    3.44125E-16    3.41188E-14
  6217.19    1.46554E-14    3.44015E-16    3.39061E-14
  6219.94    1.42519E-14    3.44419E-16    3.42516E-14
  6222.69    1.46903E-14    3.47739E-16    3.46818E-14
  6225.44    1.43577E-14    3.52457E-16    3.64588E-14
  6228.19    1.47431E-14    3.57166E-16    3.74208E-14
  6230.94    1.45820E-14    3.54146E-16    3.64688E-14
  6233.69    1.44707E-14    3.54398E-16    3.65289E-14
  6236.44    1.51197E-14    3.78377E-16    4.33779E-14
  6239.19    1.59683E-14    4.18771E-16    5.62142E-14
  6241.94    1.44983E-14    4.40498E-16    6.50993E-14
  6244.69    1.36907E-14    4.33659E-16    6.32105E-14
  6247.44    1.38712E-14    4.09995E-16    5.44588E-14
  6250.19    1.39208E-14    3.85714E-16    4.62638E-14
  6252.94    1.43118E-14    3.70258E-16    4.07555E-14
  6255.69    1.42291E-14    3.62754E-16    3.84006E-14
  6258.44    1.47379E-14    3.74923E-16    4.16667E-14
  6261.19    1.50352E-14    4.04748E-16    5.10370E-14
  6263.94    1.45503E-14    4.23510E-16    5.79811E-14
  6266.69    1.39657E-14    4.17145E-16    5.62442E-14
  6269.44    1.43784E-14    4.01105E-16    5.02734E-14
  6272.19    1.42359E-14    3.88122E-16    4.59478E-14
  6274.94    1.43230E-14    3.75974E-16    4.25326E-14
  6277.69    1.46508E-14    3.64253E-16    3.92107E-14
  6280.44    1.42486E-14    3.62069E-16    3.81938E-14
  6283.19    1.40931E-14    3.60549E-16    3.79771E-14
  6285.94    1.42894E-14    3.61106E-16    3.80484E-14
  6288.69    1.38683E-14    3.75868E-16    4.18718E-14
  6291.44    1.40575E-14    4.00540E-16    4.91050E-14
  6294.19    1.45566E-14    4.12158E-16    5.36290E-14
  6296.94    1.34590E-14    4.14270E-16    5.40117E-14
  6299.69    1.43636E-14    4.51903E-16    6.66373E-14
  6302.44    1.40069E-14    5.60176E-16    1.09972E-13
  6305.19    1.37316E-14    6.57364E-16    1.57887E-13
  6307.94    1.33542E-14    6.55042E-16    1.60961E-13
  6310.69    1.27540E-14    5.71198E-16    1.20027E-13
  6313.44    1.33367E-14    4.75106E-16    7.76822E-14
  6316.19    1.36367E-14    4.16004E-16    5.52422E-14
  6318.94    1.35054E-14    3.76971E-16    4.21838E-14
  6321.69    1.38626E-14    3.64842E-16    3.78762E-14
  6324.44    1.40310E-14    3.71842E-16    3.96483E-14
  6327.19    1.43609E-14    3.81124E-16    4.27524E-14
  6329.94    1.37218E-14    3.90554E-16    4.56685E-14
  6332.69    1.39616E-14    4.05026E-16    4.99520E-14
  6335.44    1.37125E-14    4.15622E-16    5.38975E-14
  6338.19    1.35306E-14    4.04380E-16    5.05091E-14
  6340.94    1.37387E-14    3.77598E-16    4.18121E-14
  6343.69    1.42824E-14    3.57700E-16    3.54743E-14
  6346.44    1.46778E-14    3.55601E-16    3.42503E-14
  6349.19    1.38420E-14    3.58896E-16    3.57194E-14
  6351.94    1.39894E-14    3.68031E-16    3.79973E-14
  6354.69    1.41940E-14    3.81177E-16    4.00265E-14
  6357.44    1.45608E-14    3.86142E-16    4.21668E-14
  6360.19    1.40764E-14    3.96846E-16    4.63248E-14
  6362.94    1.39534E-14    4.13297E-16    5.20829E-14
  6365.69    1.38550E-14    4.43776E-16    6.14823E-14
  6368.44    1.40017E-14    4.71620E-16    7.34415E-14
  6371.19    1.41591E-14    4.68128E-16    7.21788E-14
  6373.94    1.36383E-14    4.19620E-16    5.55225E-14
  6376.69    1.37535E-14    3.66824E-16    3.82429E-14
  6379.44    1.34887E-14    3.51445E-16    3.36076E-14
  6382.19    1.35227E-14    3.53986E-16    3.40938E-14
  6384.94    1.40023E-14    3.61060E-16    3.56640E-14
  6387.69    1.37330E-14    3.64921E-16    3.75830E-14
  6390.44    1.36944E-14    3.71833E-16    3.87818E-14
  6393.19    1.29576E-14    3.69247E-16    3.85032E-14
  6395.94    1.33753E-14    3.59704E-16    3.53905E-14
  6398.69    1.27706E-14    3.44054E-16    3.15042E-14
  6401.44    1.27997E-14    3.39406E-16    3.00622E-14
  6404.19    1.36799E-14    3.41191E-16    2.97082E-14
  6406.94    1.30500E-14    3.41479E-16    3.02493E-14
  6409.69    1.38856E-14    3.43939E-16    2.97600E-14
  6412.44    1.33466E-14    3.40426E-16    2.92682E-14
  6415.19    1.40745E-14    3.41873E-16    2.90158E-14
  6417.94    1.37798E-14    3.44604E-16    2.99038E-14
  6420.69    1.42071E-14    3.50177E-16    3.07299E-14
  6423.44    1.35179E-14    3.50516E-16    3.15451E-14
  6426.19    1.33952E-14    3.50559E-16    3.14832E-14
  6428.94    1.42236E-14    3.47288E-16    2.99946E-14
  6431.69    1.34797E-14    3.39050E-16    2.84228E-14
  6434.44    1.32514E-14    3.35532E-16    2.75776E-14
  6437.19    1.36724E-14    3.36492E-16    2.70410E-14
  6439.94    1.41032E-14    3.38084E-16    2.68886E-14
  6442.69    1.42081E-14    3.41098E-16    2.66375E-14
  6445.44    1.45341E-14    3.43699E-16    2.64001E-14
  6448.19    1.46279E-14    3.45128E-16    2.66569E-14
  6450.94    1.50283E-14    3.45710E-16    2.71198E-14
  6453.69    1.47309E-14    3.46965E-16    2.80588E-14
  6456.44    1.47016E-14    3.48765E-16    2.87064E-14
  6459.19    1.41334E-14    3.49735E-16    2.94335E-14
  6461.94    1.39660E-14    3.52224E-16    3.00659E-14
  6464.69    1.44166E-14    3.61335E-16    3.21452E-14
  6467.44    1.37095E-14    3.78287E-16    3.76335E-14
  6470.19    1.40888E-14    4.01334E-16    4.37217E-14
  6472.94    1.39864E-14    4.11302E-16    4.68077E-14
  6475.69    1.39268E-14    4.05036E-16    4.48049E-14
  6478.44    1.33091E-14    3.87103E-16    4.00404E-14
  6481.19    1.38408E-14    3.68705E-16    3.42472E-14
  6483.94    1.36617E-14    3.52200E-16    3.00024E-14
  6486.69    1.38783E-14    3.43912E-16    2.73974E-14
  6489.44    1.32616E-14    3.35122E-16    2.56909E-14
  6492.19    1.37862E-14    3.32569E-16    2.45496E-14
  6494.94    1.42083E-14    3.35765E-16    2.48678E-14
  6497.69    1.36437E-14    3.45161E-16    2.77362E-14
  6500.44    1.43780E-14    3.76952E-16    3.56359E-14
  6503.19    1.48100E-14    4.11847E-16    4.53325E-14
  6505.94    1.43281E-14    4.21722E-16    4.85759E-14
  6508.69    1.38861E-14    4.04881E-16    4.38436E-14
  6511.44    1.37132E-14    3.88856E-16    3.69666E-14
  6514.19    1.43492E-14    3.63067E-16    3.15174E-14
  6516.94    1.43319E-14    3.49500E-16    2.80728E-14
  6519.69    1.39563E-14    3.41754E-16    2.64421E-14
  6522.44    1.43374E-14    3.43182E-16    2.63406E-14
  6525.19    1.43013E-14    3.49063E-16    2.77475E-14
  6527.94    1.40990E-14    3.56158E-16    2.97462E-14
  6530.69    1.38081E-14    3.57832E-16    3.05017E-14
  6533.44    1.44719E-14    3.65195E-16    3.19499E-14
  6536.19    1.44923E-14    3.82496E-16    3.69397E-14
  6538.94    1.47962E-14    3.99032E-16    4.12575E-14
  6541.69    1.38849E-14    3.86775E-16    3.87366E-14
  6544.44    1.41018E-14    3.70496E-16    3.37345E-14
  6547.19    1.38265E-14    3.65352E-16    3.24174E-14
  6549.94    1.39099E-14    3.70120E-16    3.37928E-14
  6552.69    1.38240E-14    3.71305E-16    3.43842E-14
  6555.44    1.42118E-14    3.82638E-16    3.71891E-14
  6558.19    1.44897E-14    4.04176E-16    4.29345E-14
  6560.94    1.41796E-14    4.04999E-16    4.34898E-14
  6563.69    1.26298E-14    3.76299E-16    3.68948E-14
  6566.44    1.38364E-14    3.56019E-16    3.00199E-14
  6569.19    1.39351E-14    3.53329E-16    2.91742E-14
  6571.94    1.39622E-14    3.57804E-16    3.05773E-14
  6574.69    1.39739E-14    3.63965E-16    3.21201E-14
  6577.44    1.38859E-14    3.70138E-16    3.38962E-14
  6580.19    1.38023E-14    3.83103E-16    3.76197E-14
  6582.94    1.35820E-14    3.93709E-16    4.08589E-14
  6585.69    1.35922E-14    3.84495E-16    3.82729E-14
  6588.44    1.46244E-14    3.60136E-16    3.04307E-14
  6591.19    1.40127E-14    3.47015E-16    2.56630E-14
  6593.94    1.44675E-14    3.47740E-16    2.46112E-14
  6596.69    1.47667E-14    3.44655E-16    2.52334E-14
  6599.44    1.44321E-14    3.48871E-16    2.72568E-14
  6602.19    1.44970E-14    3.56068E-16    2.91715E-14
  6604.94    1.39254E-14    3.60431E-16    3.08279E-14
  6607.69    1.42484E-14    3.68857E-16    3.26700E-14
  6610.44    1.42500E-14    3.72163E-16    3.34531E-14
  6613.19    1.37742E-14    3.62301E-16    3.09452E-14
  6615.94    1.43868E-14    3.44171E-16    2.55871E-14
  6618.69    1.40344E-14    3.36931E-16    2.40341E-14
  6621.44    1.45605E-14    3.36045E-16    2.34448E-14
  6624.19    1.52375E-14    3.44083E-16    2.34028E-14
  6626.94    1.48324E-14    3.82053E-16    2.35756E-14
  6629.69    1.48969E-14    3.52432E-16    2.48732E-14
  6632.44    1.43398E-14    3.47581E-16    2.60720E-14
  6635.19    1.35382E-14    3.50911E-16    2.75487E-14
  6637.94    1.43944E-14    3.58231E-16    2.84623E-14
  6640.69    1.45304E-14    3.58883E-16    2.83995E-14
  6643.44    1.39499E-14    3.51797E-16    2.70312E-14
  6646.19    1.38973E-14    3.43075E-16    2.48731E-14
  6648.94    1.34846E-14    3.38448E-16    2.39722E-14
  6651.69    1.38042E-14    3.38691E-16    2.34601E-14
  6654.44    1.34822E-14    3.37991E-16    2.35900E-14
  6657.19    1.43156E-14    3.41868E-16    2.37192E-14
  6659.94    1.44383E-14    3.42389E-16    2.37651E-14
  6662.69    1.41512E-14    3.43738E-16    2.41486E-14
  6665.44    1.45239E-14    3.47587E-16    2.46432E-14
  6668.19    1.42388E-14    3.57561E-16    2.56130E-14
  6670.94    1.45613E-14    3.55647E-16    2.59374E-14
  6673.69    1.47348E-14    3.54792E-16    2.59757E-14
  6676.44    1.43186E-14    3.51169E-16    2.54578E-14
  6679.19    1.41755E-14    3.47013E-16    2.44553E-14
  6681.94    1.44031E-14    3.44968E-16    2.37079E-14
  6684.69    1.45019E-14    3.46188E-16    2.36569E-14
  6687.44    1.47771E-14    3.47770E-16    2.35655E-14
  6690.19    1.46474E-14    3.47147E-16    2.35244E-14
  6692.94    1.45827E-14    3.48117E-16    2.38192E-14
  6695.69    1.57899E-14    3.52059E-16    2.35423E-14
  6698.44    1.70873E-14    3.57233E-16    2.35082E-14
  6701.19    1.81314E-14    3.65460E-16    2.41850E-14
  6703.94    1.87097E-14    3.72315E-16    2.52427E-14
  6706.69    1.86895E-14    3.75528E-16    2.59856E-14
  6709.44    1.98503E-14    3.81093E-16    2.61429E-14
  6712.19    2.28054E-14    3.92005E-16    2.59709E-14
  6714.94    2.61681E-14    4.04093E-16    2.54926E-14
  6717.69    2.95020E-14    4.15242E-16    2.48784E-14
  6720.44    2.87406E-14    4.10861E-16    2.43876E-14
  6723.19    2.43380E-14    3.93520E-16    2.41127E-14
  6725.94    1.95016E-14    3.71991E-16    2.36625E-14
  6728.69    1.71855E-14    3.61794E-16    2.34175E-14
  6731.44    1.83045E-14    3.65685E-16    2.31656E-14
  6734.19    2.19769E-14    3.80325E-16    2.30260E-14
  6736.94    2.49681E-14    3.95119E-16    2.35094E-14
  6739.69    2.61933E-14    4.01081E-16    2.37095E-14
  6742.44    2.49900E-14    3.96176E-16    2.36741E-14
  6745.19    2.13454E-14    3.83290E-16    2.39882E-14
  6747.94    1.72431E-14    3.69195E-16    2.44296E-14
  6750.69    1.46899E-14    3.59712E-16    2.45342E-14
  6753.44    1.42828E-14    3.57360E-16    2.42863E-14
  6756.19    1.44996E-14    3.54475E-16    2.33834E-14
  6758.94    1.43249E-14    3.51875E-16    2.28774E-14
  6761.69    1.43886E-14    3.51383E-16    2.25787E-14
  6764.44    1.41784E-14    3.56768E-16    2.25270E-14
  6767.19    1.38192E-14    3.52357E-16    2.26867E-14
  6769.94    1.40137E-14    3.50616E-16    2.26249E-14
  6772.69    1.42329E-14    3.51058E-16    2.24029E-14
  6775.44    1.44384E-14    3.51893E-16    2.21948E-14
  6778.19    1.47179E-14    3.55373E-16    2.21266E-14
  6780.94    1.43362E-14    3.57544E-16    2.18758E-14
  6783.69    1.44109E-14    3.52690E-16    2.18393E-14
  6786.44    1.41296E-14    3.51818E-16    2.22164E-14
  6789.19    1.39177E-14    3.53031E-16    2.25724E-14
  6791.94    1.43067E-14    3.56488E-16    2.29459E-14
  6794.69    1.43842E-14    3.54347E-16    2.22934E-14
  6797.44    1.39759E-14    3.51302E-16    2.19182E-14
  6800.19    1.43213E-14    3.52417E-16    2.17703E-14
  6802.94    1.41199E-14    3.50396E-16    2.14614E-14
  6805.69    1.45621E-14    3.53360E-16    2.16712E-14
  6808.44    1.38637E-14    3.50751E-16    2.17846E-14
  6811.19    1.38994E-14    3.51771E-16    2.17254E-14
  6813.94    1.39703E-14    3.53646E-16    2.19840E-14
  6816.69    1.46513E-14    3.55354E-16    2.15235E-14
  6819.44    1.39465E-14    3.52043E-16    2.15960E-14
  6822.19    1.38775E-14    3.54056E-16    2.20787E-14
  6824.94    1.41428E-14    3.60933E-16    2.32090E-14
  6827.69    1.37977E-14    3.82538E-16    2.84987E-14
  6830.44    1.56181E-14    4.46117E-16    4.30363E-14
  6833.19    1.51356E-14    5.21240E-16    6.66840E-14
  6835.94    1.57872E-14    5.66755E-16    8.14772E-14
  6838.69    1.39320E-14    5.60838E-16    8.07430E-14
  6841.44    1.33192E-14    5.20292E-16    6.65072E-14
  6844.19    1.35798E-14    4.64102E-16    4.94178E-14
  6846.94    1.35166E-14    4.21581E-16    3.78910E-14
  6849.69    1.38566E-14    3.99942E-16    3.18673E-14
  6852.44    1.36294E-14    3.78261E-16    2.69661E-14
  6855.19    1.31450E-14    3.66600E-16    2.46842E-14
  6857.94    1.40080E-14    3.67762E-16    2.40504E-14
  6860.69    1.36862E-14    3.73505E-16    2.55205E-14
  6863.44    1.46352E-14    4.13063E-16    3.40880E-14
  6866.19    1.63321E-14    4.97182E-16    5.65408E-14
  6868.94    1.44107E-14    5.53891E-16    7.62907E-14
  6871.69    1.21792E-14    5.34527E-16    7.15135E-14
  6874.44    1.04084E-14    4.47448E-16    4.72071E-14
  6877.19    1.08040E-14    3.81046E-16    2.94434E-14
  6879.94    1.13472E-14    3.56780E-16    2.33117E-14
  6882.69    1.29043E-14    3.64806E-16    2.35195E-14
  6885.44    1.39042E-14    3.82592E-16    2.66372E-14
  6888.19    1.41122E-14    3.94237E-16    2.90899E-14
  6890.94    1.42409E-14    4.00594E-16    3.04156E-14
  6893.69    1.33944E-14    4.03315E-16    3.18306E-14
  6896.44    1.22269E-14    3.97770E-16    3.14919E-14
  6899.19    1.10955E-14    3.78399E-16    2.79741E-14
  6901.94    1.15218E-14    3.71111E-16    2.57145E-14
  6904.69    1.17816E-14    3.79531E-16    2.72650E-14
  6907.44    1.15295E-14    3.83257E-16    2.83614E-14
  6910.19    1.13688E-14    3.76475E-16    2.68827E-14
  6912.94    1.24243E-14    3.84212E-16    2.76126E-14
  6915.69    1.29296E-14    4.11661E-16    3.34753E-14
  6918.44    1.25616E-14    4.29497E-16    3.82038E-14
  6921.19    1.25478E-14    4.24131E-16    3.68566E-14
  6923.94    1.29621E-14    4.25654E-16    3.67986E-14
  6926.69    1.39505E-14    4.58506E-16    4.44109E-14
  6929.44    1.34120E-14    4.74966E-16    4.95046E-14
  6932.19    1.19271E-14    4.41855E-16    4.21441E-14
  6934.94    1.15564E-14    3.93053E-16    2.97826E-14
  6937.69    1.26116E-14    3.76559E-16    2.47843E-14
  6940.44    1.31781E-14    3.93384E-16    2.79760E-14
  6943.19    1.33764E-14    4.23766E-16    3.53025E-14
